timestamps,TP9,AF7,AF8,TP10,Right AUX
1709720479.566,-57.617,-60.547,-52.734,-76.660,0.000
1709720479.570,-83.496,-58.105,-36.621,-100.586,0.000
1709720479.574,-93.262,-55.664,-33.691,-108.398,0.000
1709720479.577,-69.336,-61.035,-42.480,-91.309,0.000
1709720479.581,-33.691,-57.617,-39.551,-62.988,0.000
1709720479.585,-27.832,-51.270,-35.156,-55.176,0.000
1709720479.589,-58.105,-48.828,-26.855,-71.777,0.000
1709720479.593,-103.516,-54.199,-29.785,-114.258,0.000
1709720479.597,-82.520,-52.246,-34.668,-105.469,0.000
1709720479.601,-39.062,-53.223,-35.645,-62.012,0.000
1709720479.605,-46.875,-61.035,-34.668,-56.641,0.000
1709720479.609,-91.309,-62.500,-43.457,-91.309,0.000
1709720479.613,-116.211,-59.082,-43.945,-115.234,0.000
1709720479.617,-83.984,-52.246,-37.598,-86.426,0.000
1709720479.620,-34.668,-52.734,-45.410,-46.387,0.000
1709720479.624,-39.062,-60.059,-41.016,-42.969,0.000
1709720479.628,-64.941,-53.223,-29.785,-61.035,0.000
1709720479.632,-62.500,-36.621,-17.090,-65.918,0.000
1709720479.636,-57.129,-40.527,-20.020,-75.684,0.000
1709720479.640,-40.039,-52.246,-27.832,-68.848,0.000
1709720479.644,-27.344,-62.988,-35.156,-56.152,0.000
1709720479.648,-31.250,-53.223,-33.203,-48.340,0.000
1709720479.652,-70.801,-52.734,-30.762,-68.359,0.000
1709720479.655,-107.910,-74.219,-49.805,-118.164,0.000
1709720479.660,-57.129,-69.824,-46.387,-74.219,0.000
1709720479.663,-29.785,-60.547,-37.109,-34.180,0.000
1709720479.667,-63.477,-52.734,-36.621,-64.453,0.000
1709720479.671,-102.539,-48.828,-34.180,-102.051,0.000
1709720479.675,-95.703,-50.781,-35.156,-99.609,0.000
1709720479.679,-43.457,-51.270,-37.598,-56.641,0.000
1709720479.683,-31.738,-54.688,-39.551,-49.316,0.000
1709720479.687,-66.406,-60.059,-37.109,-80.078,0.000
1709720479.691,-86.914,-58.594,-29.297,-90.820,0.000
1709720479.695,-79.590,-51.758,-26.855,-79.102,0.000
1709720479.698,-73.242,-63.965,-42.969,-78.125,0.000
1709720479.702,-46.875,-69.336,-50.781,-63.965,0.000
1709720479.706,-44.434,-60.547,-39.551,-50.293,0.000
1709720479.710,-84.473,-55.664,-28.320,-79.590,0.000
1709720479.714,-107.910,-56.641,-32.227,-119.629,0.000
1709720479.718,-79.590,-53.223,-35.156,-89.355,0.000
1709720479.722,-28.809,-47.852,-32.227,-35.156,0.000
1709720479.726,-33.203,-53.711,-33.691,-46.875,0.000
1709720479.730,-75.684,-58.594,-33.691,-87.402,0.000
1709720479.734,-95.215,-61.035,-36.133,-108.398,0.000
1709720479.738,-41.504,-44.434,-24.902,-50.293,0.000
1709720479.741,6.348,-41.992,-21.484,-0.488,0.000
1709720479.745,-49.805,-72.754,-50.293,-68.848,0.000
1709720479.749,-85.938,-70.312,-49.316,-99.121,0.000
1709720479.753,-90.820,-56.641,-37.598,-97.168,0.000
1709720479.757,-82.031,-57.129,-40.527,-94.238,0.000
1709720479.761,-49.316,-63.965,-39.551,-59.570,0.000
1709720479.765,-31.738,-66.895,-27.832,-44.434,0.000
1709720479.769,-59.570,-56.641,-30.762,-74.219,0.000
1709720479.773,-87.891,-47.363,-40.039,-93.262,0.000
1709720479.777,-71.289,-52.246,-38.086,-87.402,0.000
1709720479.781,-22.949,-53.711,-26.855,-53.711,0.000
1709720479.784,0.000,-49.805,-22.461,-23.438,0.000
1709720479.788,-75.684,-68.359,-40.527,-87.891,0.000
1709720479.792,-116.699,-67.871,-35.156,-128.906,0.000
1709720479.796,-77.148,-56.641,-28.320,-89.355,0.000
1709720479.800,-42.480,-62.500,-38.086,-50.293,0.000
1709720479.804,-41.504,-68.359,-42.480,-52.246,0.000
1709720479.808,-71.289,-62.500,-40.527,-81.543,0.000
1709720479.812,-89.844,-54.199,-37.598,-97.168,0.000
1709720479.816,-71.289,-53.711,-34.180,-91.797,0.000
1709720479.820,-39.062,-65.918,-37.598,-59.570,0.000
1709720479.824,-34.668,-71.777,-48.828,-40.527,0.000
1709720479.827,-40.039,-62.012,-34.180,-44.922,0.000
1709720479.831,-60.059,-59.082,-26.855,-75.195,0.000
1709720479.835,-112.305,-72.754,-60.059,-133.301,0.000
1709720479.839,-73.242,-76.172,-57.617,-97.656,0.000
1709720479.843,-24.414,-66.406,-33.691,-47.363,0.000
1709720479.847,-58.105,-65.430,-36.621,-66.895,0.000
1709720479.851,-102.539,-65.430,-38.574,-104.980,0.000
1709720479.855,-91.797,-54.199,-36.133,-106.445,0.000
1709720479.859,-54.688,-63.477,-41.992,-76.660,0.000
1709720479.863,-37.109,-66.406,-43.457,-57.129,0.000
1709720479.867,-45.898,-56.641,-35.156,-60.059,0.000
1709720479.870,-80.078,-56.152,-29.297,-94.238,0.000
1709720479.874,-76.660,-41.992,-28.320,-90.820,0.000
1709720479.878,-66.895,-54.688,-36.621,-76.660,0.000
1709720479.882,-51.270,-71.289,-37.598,-64.453,0.000
1709720479.886,-41.992,-52.734,-30.273,-55.176,0.000
1709720479.890,-83.984,-48.828,-28.320,-89.844,0.000
1709720479.894,-105.469,-56.152,-34.668,-120.117,0.000
1709720479.898,-68.359,-52.734,-36.133,-89.355,0.000
1709720479.902,-30.273,-55.664,-28.320,-43.945,0.000
1709720479.906,-39.551,-63.965,-28.809,-52.734,0.000
1709720479.909,-84.473,-61.523,-32.715,-95.215,0.000
1709720479.913,-95.703,-51.758,-27.832,-110.840,0.000
1709720479.917,-42.480,-44.922,-20.020,-55.176,0.000
1709720479.921,-6.348,-52.734,-16.602,-8.789,0.000
1709720479.925,-52.246,-86.914,-38.574,-65.430,0.000
1709720479.929,-83.008,-78.125,-40.527,-97.168,0.000
1709720479.933,-94.727,-58.594,-35.645,-105.469,0.000
1709720479.937,-79.102,-58.594,-37.598,-98.145,0.000
1709720479.941,-48.340,-68.848,-43.945,-72.754,0.000
1709720479.945,-44.434,-74.707,-45.898,-64.453,0.000
1709720479.949,-77.148,-64.941,-38.086,-90.332,0.000
1709720479.952,-107.910,-60.547,-37.598,-120.605,0.000
1709720479.956,-85.938,-62.012,-38.574,-101.562,0.000
1709720479.960,-36.133,-62.988,-40.527,-51.758,0.000
1709720479.964,-13.672,-65.918,-33.203,-27.832,0.000
1709720479.968,-78.613,-73.730,-40.527,-86.914,0.000
1709720479.972,-128.418,-67.871,-43.945,-119.629,0.000
1709720479.976,-91.309,-57.129,-34.668,-87.891,0.000
1709720479.980,-45.898,-60.059,-40.527,-68.848,0.000
1709720479.984,-42.969,-70.801,-44.922,-58.594,0.000
1709720479.988,-82.520,-75.195,-41.504,-75.684,0.000
1709720479.992,-107.422,-63.965,-34.668,-94.238,0.000
1709720479.995,-96.191,-56.152,-28.320,-90.332,0.000
1709720479.999,-70.312,-64.453,-35.645,-80.078,0.000
1709720480.003,-41.016,-62.500,-41.504,-47.852,0.000
1709720480.007,-41.504,-50.293,-30.762,-46.875,0.000
1709720480.011,-82.031,-57.129,-28.320,-97.656,0.000
1709720480.015,-103.516,-64.453,-34.180,-113.770,0.000
1709720480.019,-65.918,-55.664,-28.320,-84.961,0.000
1709720480.023,-11.719,-49.316,-21.973,-36.621,0.000
1709720480.027,-36.621,-57.617,-32.715,-50.781,0.000
1709720480.030,-103.516,-60.547,-49.805,-122.559,0.000
1709720480.035,-99.609,-49.805,-50.293,-114.258,0.000
1709720480.038,-46.387,-47.852,-40.039,-62.988,0.000
1709720480.042,-29.297,-58.594,-36.621,-54.688,0.000
1709720480.046,-62.500,-60.547,-37.598,-79.590,0.000
1709720480.050,-85.938,-53.711,-28.320,-89.844,0.000
1709720480.054,-82.031,-52.246,-19.043,-89.844,0.000
1709720480.058,-50.781,-53.711,-19.043,-74.219,0.000
1709720480.062,-36.621,-58.594,-26.367,-59.570,0.000
1709720480.066,-38.574,-53.223,-31.250,-53.223,0.000
1709720480.070,-61.523,-42.969,-26.855,-68.848,0.000
1709720480.074,-119.629,-61.035,-40.039,-128.906,0.000
1709720480.077,-100.098,-63.965,-41.992,-115.234,0.000
1709720480.081,-47.852,-51.758,-31.738,-54.199,0.000
1709720480.085,-51.270,-57.129,-38.574,-60.059,0.000
1709720480.089,-94.727,-67.871,-42.480,-110.352,0.000
1709720480.093,-116.699,-67.383,-33.203,-115.723,0.000
1709720480.097,-74.219,-62.500,-33.691,-85.449,0.000
1709720480.101,-21.484,-60.547,-37.109,-50.293,0.000
1709720480.105,-31.250,-64.453,-37.598,-39.062,0.000
1709720480.109,-79.102,-64.941,-40.527,-80.566,0.000
1709720480.113,-83.496,-46.387,-26.855,-92.285,0.000
1709720480.117,-57.617,-44.922,-24.902,-68.359,0.000
1709720480.120,-63.477,-72.754,-48.828,-78.125,0.000
1709720480.124,-50.293,-65.430,-44.922,-55.664,0.000
1709720480.128,-72.754,-57.617,-41.992,-71.289,0.000
1709720480.132,-114.258,-67.871,-40.527,-120.117,0.000
1709720480.136,-102.051,-69.336,-38.086,-111.328,0.000
1709720480.140,-45.898,-71.289,-38.086,-64.941,0.000
1709720480.144,-25.879,-71.777,-31.250,-38.574,0.000
1709720480.148,-56.641,-72.266,-25.391,-62.988,0.000
1709720480.152,-98.633,-70.801,-31.738,-109.375,0.000
1709720480.156,-100.586,-65.918,-31.250,-99.609,0.000
1709720480.160,-50.781,-67.871,-26.367,-47.852,0.000
1709720480.163,-43.457,-69.336,-37.109,-49.805,0.000
1709720480.167,-81.543,-66.406,-41.016,-88.379,0.000
1709720480.171,-101.074,-57.129,-30.273,-109.863,0.000
1709720480.175,-84.473,-53.223,-23.926,-98.145,0.000
1709720480.179,-78.613,-72.266,-46.875,-92.285,0.000
1709720480.183,-55.176,-72.754,-44.434,-62.988,0.000
1709720480.187,-50.781,-63.965,-30.273,-62.500,0.000
1709720480.191,-90.820,-58.594,-37.109,-99.121,0.000
1709720480.195,-92.285,-48.340,-39.062,-104.980,0.000
1709720480.199,-57.129,-55.176,-38.574,-78.125,0.000
1709720480.202,-3.418,-58.594,-33.203,-21.973,0.000
1709720480.206,-4.395,-54.688,-27.344,-26.855,0.000
1709720480.210,-101.562,-65.918,-45.898,-126.953,0.000
1709720480.214,-106.445,-58.105,-41.992,-138.672,0.000
1709720480.218,-58.594,-53.223,-36.133,-96.680,0.000
1709720480.222,-31.250,-66.406,-38.086,-60.059,0.000
1709720480.226,-53.223,-72.754,-41.016,-67.871,0.000
1709720480.230,-99.121,-65.430,-41.504,-103.027,0.000
1709720480.234,-99.609,-55.664,-34.668,-106.445,0.000
1709720480.238,-70.312,-59.082,-39.062,-92.285,0.000
1709720480.242,-29.297,-60.547,-38.574,-49.316,0.000
1709720480.245,-31.250,-58.105,-32.715,-32.715,0.000
1709720480.249,-65.430,-60.059,-26.367,-57.617,0.000
1709720480.253,-113.770,-70.312,-41.016,-110.352,0.000
1709720480.257,-100.586,-63.965,-43.945,-108.887,0.000
1709720480.261,-39.551,-56.152,-29.785,-52.246,0.000
1709720480.265,-35.645,-67.871,-37.598,-48.340,0.000
1709720480.269,-87.402,-73.242,-58.105,-100.586,0.000
1709720480.273,-107.910,-62.500,-51.758,-118.652,0.000
1709720480.277,-64.941,-50.293,-28.809,-85.449,0.000
1709720480.281,-28.809,-54.199,-36.133,-52.246,0.000
1709720480.285,-32.227,-67.383,-44.434,-50.293,0.000
1709720480.288,-56.641,-62.988,-36.133,-78.125,0.000
1709720480.292,-63.477,-41.016,-23.926,-83.008,0.000
1709720480.296,-47.363,-35.156,-16.602,-56.641,0.000
1709720480.300,-64.941,-65.430,-46.875,-81.543,0.000
1709720480.304,-60.059,-68.359,-54.688,-82.031,0.000
1709720480.308,-73.730,-59.082,-44.434,-85.938,0.000
1709720480.312,-112.793,-67.383,-52.734,-128.418,0.000
1709720480.316,-106.934,-64.453,-50.781,-117.676,0.000
1709720480.320,-50.293,-56.152,-40.039,-60.547,0.000
1709720480.324,-22.461,-58.105,-34.668,-43.457,0.000
1709720480.327,-72.266,-64.941,-49.316,-88.379,0.000
1709720480.331,-112.793,-62.988,-47.363,-121.582,0.000
1709720480.335,-81.055,-44.922,-25.879,-93.750,0.000
1709720480.339,-25.879,-37.109,-22.949,-47.852,0.000
1709720480.343,-30.762,-64.453,-38.086,-49.316,0.000
1709720480.347,-73.730,-73.242,-51.270,-80.566,0.000
1709720480.351,-93.262,-53.711,-37.598,-93.262,0.000
1709720480.355,-78.125,-45.410,-23.926,-92.285,0.000
1709720480.359,-48.828,-53.223,-36.133,-73.242,0.000
1709720480.363,-23.438,-62.500,-35.645,-40.527,0.000
1709720480.367,-27.832,-56.152,-25.391,-45.410,0.000
1709720480.370,-78.613,-49.316,-25.391,-92.773,0.000
1709720480.374,-106.934,-50.293,-29.297,-113.281,0.000
1709720480.378,-64.941,-46.875,-27.344,-74.219,0.000
1709720480.382,-11.230,-41.504,-19.531,-15.625,0.000
1709720480.386,-31.250,-53.223,-26.367,-27.832,0.000
1709720480.390,-100.098,-64.941,-38.574,-95.703,0.000
1709720480.394,-110.352,-60.547,-29.297,-115.234,0.000
1709720480.398,-40.039,-57.617,-14.648,-55.664,0.000
1709720480.402,-18.066,-61.523,-27.344,-30.273,0.000
1709720480.405,-55.664,-64.453,-42.480,-65.918,0.000
1709720480.410,-77.148,-53.223,-30.273,-86.426,0.000
1709720480.413,-87.402,-48.828,-25.391,-97.168,0.000
1709720480.417,-73.730,-58.105,-36.621,-98.145,0.000
1709720480.421,-50.293,-68.848,-43.945,-83.496,0.000
1709720480.425,-41.504,-66.406,-37.109,-63.477,0.000
1709720480.429,-63.477,-52.734,-29.297,-74.707,0.000
1709720480.433,-94.727,-51.270,-34.180,-114.258,0.000
1709720480.437,-89.844,-63.965,-46.875,-110.840,0.000
1709720480.441,-35.645,-59.082,-39.062,-50.293,0.000
1709720480.445,-15.625,-51.758,-27.344,-25.879,0.000
1709720480.448,-72.266,-67.871,-37.109,-76.172,0.000
1709720480.452,-109.863,-62.012,-39.551,-117.188,0.000
1709720480.456,-76.172,-44.922,-31.250,-95.703,0.000
1709720480.460,-33.691,-45.410,-27.344,-49.805,0.000
1709720480.464,-41.992,-56.641,-35.645,-53.223,0.000
1709720480.468,-72.266,-62.500,-42.969,-78.613,0.000
1709720480.472,-95.215,-51.270,-30.273,-87.402,0.000
1709720480.476,-76.660,-45.410,-18.555,-72.754,0.000
1709720480.480,-39.062,-51.270,-24.414,-50.781,0.000
1709720480.484,-26.855,-54.688,-28.809,-44.922,0.000
1709720480.488,-33.691,-57.129,-17.578,-40.527,0.000
1709720480.491,-66.895,-55.664,-21.484,-64.453,0.000
1709720480.495,-121.094,-63.477,-49.805,-131.348,0.000
1709720480.499,-72.754,-52.246,-45.410,-94.238,0.000
1709720480.503,-24.902,-48.340,-39.551,-47.852,0.000
1709720480.507,-46.387,-54.199,-37.109,-68.359,0.000
1709720480.511,-88.867,-51.758,-34.668,-104.492,0.000
1709720480.515,-87.891,-47.363,-33.691,-107.422,0.000
1709720480.519,-38.574,-50.781,-32.715,-62.500,0.000
1709720480.523,-20.508,-62.012,-39.551,-36.133,0.000
1709720480.527,-46.875,-62.012,-37.598,-60.547,0.000
1709720480.531,-72.754,-61.035,-27.344,-85.938,0.000
1709720480.534,-55.176,-55.176,-18.555,-68.848,0.000
1709720480.538,-49.805,-65.430,-32.715,-76.660,0.000
1709720480.542,-35.645,-69.336,-41.016,-67.871,0.000
1709720480.546,-32.227,-53.711,-32.715,-50.781,0.000
1709720480.550,-69.824,-47.363,-27.344,-86.914,0.000
1709720480.554,-89.355,-48.828,-28.320,-115.723,0.000
1709720480.558,-64.453,-51.758,-31.250,-83.984,0.000
1709720480.562,-18.555,-47.852,-30.762,-35.645,0.000
1709720480.566,-21.973,-54.199,-30.762,-40.527,0.000
1709720480.570,-75.195,-59.570,-34.180,-88.379,0.000
1709720480.574,-89.844,-54.688,-35.156,-104.980,0.000
1709720480.577,-48.828,-51.270,-27.344,-64.453,0.000
1709720480.581,-36.133,-61.035,-34.668,-45.898,0.000
1709720480.585,-61.523,-83.984,-49.805,-68.359,0.000
1709720480.589,-93.262,-79.102,-47.852,-96.680,0.000
1709720480.593,-74.219,-46.387,-28.320,-78.125,0.000
1709720480.597,-43.457,-41.504,-35.156,-58.105,0.000
1709720480.601,-53.711,-66.406,-60.059,-76.172,0.000
1709720480.605,-40.039,-66.406,-37.598,-50.293,0.000
1709720480.609,-67.383,-55.176,-29.785,-70.312,0.000
1709720480.613,-104.492,-51.758,-32.715,-112.793,0.000
1709720480.617,-81.055,-51.758,-22.461,-93.262,0.000
1709720480.620,-31.738,-55.176,-27.832,-50.293,0.000
1709720480.624,-16.113,-62.500,-30.273,-34.668,0.000
1709720480.628,-83.984,-79.590,-44.922,-98.145,0.000
1709720480.632,-124.512,-76.172,-54.199,-137.695,0.000
1709720480.636,-88.867,-58.594,-35.156,-96.191,0.000
1709720480.640,-43.457,-65.918,-28.320,-60.547,0.000
1709720480.644,-44.434,-75.195,-38.086,-67.383,0.000
1709720480.648,-74.707,-59.570,-39.551,-89.844,0.000
1709720480.652,-89.355,-47.363,-36.621,-103.027,0.000
1709720480.656,-88.379,-47.852,-40.527,-102.539,0.000
1709720480.659,-50.781,-49.316,-39.551,-77.637,0.000
1709720480.663,-27.344,-61.035,-34.180,-51.270,0.000
1709720480.667,-36.133,-53.223,-26.855,-41.504,0.000
1709720480.671,-74.707,-46.875,-29.785,-71.289,0.000
1709720480.675,-125.488,-71.289,-54.688,-123.047,0.000
1709720480.679,-74.219,-74.707,-51.758,-85.449,0.000
1709720480.683,-25.879,-66.406,-45.898,-38.574,0.000
1709720480.687,-56.152,-60.059,-50.781,-60.547,0.000
1709720480.691,-110.840,-54.199,-45.898,-113.281,0.000
1709720480.695,-106.934,-43.457,-42.480,-116.699,0.000
1709720480.699,-51.758,-40.039,-43.457,-69.824,0.000
1709720480.702,-28.809,-55.176,-40.039,-51.758,0.000
1709720480.706,-51.758,-66.406,-41.992,-66.406,0.000
1709720480.710,-82.520,-56.152,-46.875,-90.820,0.000
1709720480.714,-76.172,-45.898,-37.109,-95.703,0.000
1709720480.718,-68.359,-55.176,-44.434,-92.285,0.000
1709720480.722,-58.105,-69.336,-59.570,-78.125,0.000
1709720480.726,-46.387,-65.430,-51.758,-65.918,0.000
1709720480.730,-80.566,-55.176,-43.457,-92.285,0.000
1709720480.734,-107.910,-52.734,-41.992,-116.699,0.000
1709720480.738,-69.824,-50.781,-39.551,-84.473,0.000
1709720480.741,-28.320,-56.641,-38.574,-41.504,0.000
1709720480.745,-44.434,-62.988,-36.621,-55.176,0.000
1709720480.749,-93.750,-71.777,-44.434,-102.539,0.000
1709720480.753,-112.305,-63.965,-43.457,-126.953,0.000
1709720480.757,-58.594,-43.945,-29.785,-75.195,0.000
1709720480.761,-15.625,-49.316,-34.668,-34.180,0.000
1709720480.765,-46.875,-62.012,-44.922,-64.453,0.000
1709720480.769,-86.914,-62.500,-42.480,-97.168,0.000
1709720480.773,-72.266,-51.758,-25.879,-78.613,0.000
1709720480.776,-63.477,-61.035,-34.668,-66.895,0.000
1709720480.780,-70.801,-82.031,-56.152,-76.660,0.000
1709720480.784,-44.434,-71.289,-42.969,-50.293,0.000
1709720480.788,-71.289,-67.871,-42.480,-86.426,0.000
1709720480.792,-100.586,-55.176,-38.574,-125.000,0.000
1709720480.796,-87.891,-51.758,-31.250,-109.375,0.000
1709720480.800,-51.758,-59.082,-38.574,-69.336,0.000
1709720480.804,-29.297,-56.152,-41.504,-31.250,0.000
1709720480.808,-70.312,-66.895,-49.316,-67.871,0.000
1709720480.812,-121.094,-67.871,-54.688,-128.906,0.000
1709720480.816,-92.773,-57.129,-38.086,-106.445,0.000
1709720480.819,-32.715,-50.293,-29.785,-49.805,0.000
1709720480.823,-41.504,-60.547,-47.852,-58.594,0.000
1709720480.827,-73.730,-65.918,-49.805,-84.473,0.000
1709720480.831,-91.797,-55.664,-32.715,-98.145,0.000
1709720480.835,-90.820,-49.316,-30.762,-106.445,0.000
1709720480.839,-61.523,-59.570,-40.527,-86.426,0.000
1709720480.843,-29.785,-65.918,-34.180,-46.875,0.000
1709720480.847,-43.945,-59.570,-26.855,-52.246,0.000
1709720480.851,-72.754,-60.059,-31.738,-90.820,0.000
1709720480.855,-80.566,-60.547,-37.109,-101.562,0.000
1709720480.859,-54.688,-59.082,-34.180,-76.660,0.000
1709720480.862,1.465,-54.199,-26.855,-25.879,0.000
1709720480.866,-12.207,-42.480,-25.879,-27.344,0.000
1709720480.870,-105.469,-61.035,-47.363,-115.234,0.000
1709720480.874,-113.281,-61.035,-48.828,-125.488,0.000
1709720480.878,-62.988,-49.316,-33.691,-78.613,0.000
1709720480.882,-41.504,-64.453,-35.645,-52.734,0.000
1709720480.886,-56.641,-65.918,-41.992,-59.570,0.000
1709720480.890,-83.008,-54.199,-41.504,-83.008,0.000
1709720480.894,-83.984,-46.875,-32.227,-90.820,0.000
1709720480.898,-59.570,-47.363,-22.461,-65.918,0.000
1709720480.902,-37.109,-62.012,-25.391,-45.898,0.000
1709720480.905,-38.086,-61.035,-28.320,-51.270,0.000
1709720480.909,-76.172,-50.293,-22.949,-71.289,0.000
1709720480.913,-129.395,-59.570,-39.062,-124.512,0.000
1709720480.917,-96.680,-60.547,-47.852,-112.305,0.000
1709720480.921,-31.738,-53.711,-35.156,-45.898,0.000
1709720480.925,-26.367,-58.594,-31.738,-35.156,0.000
1709720480.929,-76.172,-67.383,-33.203,-85.938,0.000
1709720480.933,-95.215,-69.824,-29.785,-95.215,0.000
1709720480.937,-39.551,-61.035,-25.391,-47.852,0.000
1709720480.941,-21.484,-60.547,-36.133,-36.621,0.000
1709720480.945,-44.922,-57.617,-51.270,-60.059,0.000
1709720480.948,-77.148,-46.875,-53.223,-91.309,0.000
1709720480.952,-76.660,-29.297,-39.551,-91.309,0.000
1709720480.956,-35.156,-19.043,-43.945,-62.500,0.000
1709720480.960,-39.551,-40.039,-77.637,-71.289,0.000
1709720480.964,-28.320,-35.645,-73.730,-54.199,0.000
1709720480.968,-47.852,-28.809,-66.895,-66.406,0.000
1709720480.972,-94.238,-35.156,-68.848,-112.305,0.000
1709720480.976,-88.867,-41.992,-62.012,-107.422,0.000
1709720480.980,-33.691,-39.551,-51.270,-54.688,0.000
1709720480.984,-7.812,-39.062,-49.805,-33.691,0.000
1709720480.988,-48.828,-53.711,-59.570,-70.312,0.000
1709720480.991,-75.195,-50.293,-53.711,-89.844,0.000
1709720480.995,-55.176,-44.434,-43.457,-81.055,0.000
1709720480.999,-11.719,-44.434,-41.504,-39.551,0.000
1709720481.003,-12.695,-48.340,-53.223,-44.434,0.000
1709720481.007,-48.828,-54.199,-57.129,-72.266,0.000
1709720481.011,-64.453,-45.410,-41.016,-81.543,0.000
1709720481.015,-58.594,-38.086,-35.645,-90.332,0.000
1709720481.019,-35.645,-50.293,-44.922,-68.359,0.000
1709720481.023,-24.902,-62.988,-49.316,-50.781,0.000
1709720481.027,-42.969,-59.570,-47.852,-58.105,0.000
1709720481.030,-78.125,-53.711,-40.527,-87.891,0.000
1709720481.034,-91.309,-52.246,-44.434,-105.957,0.000
1709720481.038,-45.898,-41.992,-40.039,-69.336,0.000
1709720481.042,17.578,-34.180,-30.762,-7.324,0.000
1709720481.046,9.277,-43.945,-36.621,-15.625,0.000
1709720481.050,-94.727,-64.453,-55.664,-111.328,0.000
1709720481.054,-102.539,-53.711,-46.875,-121.582,0.000
1709720481.058,-47.852,-49.805,-38.574,-77.148,0.000
1709720481.062,-31.250,-62.500,-48.340,-63.477,0.000
1709720481.066,-47.363,-63.965,-54.688,-68.848,0.000
1709720481.070,-71.777,-58.105,-46.387,-87.402,0.000
1709720481.073,-83.008,-49.805,-41.504,-104.004,0.000
1709720481.077,-61.523,-49.316,-44.922,-84.961,0.000
1709720481.081,-22.461,-54.199,-43.457,-55.664,0.000
1709720481.085,-23.438,-60.059,-40.527,-48.828,0.000
1709720481.089,-50.781,-50.293,-35.645,-61.523,0.000
1709720481.093,-104.492,-48.340,-46.387,-104.492,0.000
1709720481.097,-98.633,-60.059,-51.758,-106.445,0.000
1709720481.101,-27.344,-56.641,-36.133,-48.828,0.000
1709720481.105,-15.137,-56.152,-35.156,-40.039,0.000
1709720481.108,-72.266,-55.176,-44.922,-90.332,0.000
1709720481.112,-106.934,-51.758,-49.805,-119.141,0.000
1709720481.116,-66.406,-54.199,-45.410,-92.773,0.000
1709720481.120,-26.367,-62.012,-39.551,-58.594,0.000
1709720481.124,-41.504,-67.871,-46.875,-57.617,0.000
1709720481.128,-60.547,-52.246,-38.574,-67.383,0.000
1709720481.132,-53.711,-23.926,-19.043,-63.477,0.000
1709720481.136,-49.316,-27.344,-27.344,-62.988,0.000
1709720481.140,-28.809,-46.387,-35.645,-39.551,0.000
1709720481.144,-18.066,-53.711,-42.480,-35.156,0.000
1709720481.148,-23.926,-41.016,-31.738,-39.062,0.000
1709720481.151,-62.500,-43.457,-27.344,-72.754,0.000
1709720481.155,-100.098,-63.965,-49.805,-123.535,0.000
1709720481.159,-49.316,-60.547,-39.062,-69.824,0.000
1709720481.163,-26.855,-68.848,-32.227,-28.320,0.000
1709720481.167,-64.453,-77.148,-41.016,-59.082,0.000
1709720481.171,-97.656,-67.383,-38.086,-107.910,0.000
1709720481.175,-86.426,-63.477,-32.715,-107.422,0.000
1709720481.179,-38.574,-60.059,-31.250,-62.988,0.000
1709720481.183,-24.414,-67.383,-35.156,-41.504,0.000
1709720481.187,-57.129,-72.754,-36.621,-68.848,0.000
1709720481.191,-79.102,-50.293,-34.180,-98.633,0.000
1709720481.194,-72.754,-45.410,-37.109,-95.703,0.000
1709720481.198,-65.430,-68.359,-49.316,-90.332,0.000
1709720481.202,-33.203,-65.430,-47.852,-68.359,0.000
1709720481.206,-14.648,-54.688,-46.875,-56.152,0.000
1709720481.210,-60.547,-59.570,-49.316,-83.984,0.000
1709720481.214,-89.844,-62.500,-46.875,-107.910,0.000
1709720481.218,-62.012,-53.711,-41.504,-83.008,0.000
1709720481.222,-19.531,-52.246,-42.480,-39.551,0.000
1709720481.226,-24.414,-54.199,-45.410,-43.945,0.000
1709720481.230,-85.449,-51.270,-44.434,-91.797,0.000
1709720481.234,-105.957,-52.246,-46.875,-118.164,0.000
1709720481.237,-42.480,-45.898,-34.668,-69.824,0.000
1709720481.241,5.371,-39.062,-29.785,-17.090,0.000
1709720481.245,-51.758,-64.453,-53.711,-65.918,0.000
1709720481.249,-84.961,-60.547,-40.527,-94.238,0.000
1709720481.253,-96.680,-53.223,-31.738,-114.258,0.000
1709720481.257,-81.543,-60.059,-41.992,-104.004,0.000
1709720481.261,-34.180,-61.035,-41.016,-60.547,0.000
1709720481.265,-23.926,-62.012,-37.598,-50.781,0.000
1709720481.269,-64.453,-58.105,-35.645,-78.613,0.000
1709720481.273,-97.168,-55.176,-34.180,-104.980,0.000
1709720481.277,-84.473,-55.664,-36.133,-93.750,0.000
1709720481.280,-37.109,-50.781,-35.156,-50.293,0.000
1709720481.284,-5.371,-47.852,-25.879,-18.555,0.000
1709720481.288,-69.824,-61.523,-44.434,-77.637,0.000
1709720481.292,-110.840,-56.641,-52.734,-120.605,0.000
1709720481.296,-69.824,-44.434,-36.621,-86.914,0.000
1709720481.300,-27.344,-49.316,-30.273,-53.223,0.000
1709720481.304,-19.043,-60.059,-29.785,-49.316,0.000
1709720481.308,-47.852,-57.617,-29.297,-71.289,0.000
1709720481.312,-88.379,-47.363,-32.227,-100.098,0.000
1709720481.316,-75.195,-47.363,-26.855,-91.309,0.000
1709720481.320,-28.320,-51.270,-28.809,-59.082,0.000
1709720481.323,-25.391,-53.223,-34.668,-52.246,0.000
1709720481.327,-47.363,-54.199,-22.461,-52.734,0.000
1709720481.331,-89.355,-55.664,-27.832,-87.402,0.000
1709720481.335,-109.863,-57.129,-41.992,-122.559,0.000
1709720481.339,-64.941,-48.828,-35.645,-73.242,0.000
1709720481.343,-3.418,-34.668,-18.555,-6.348,0.000
1709720481.347,-29.297,-49.316,-28.809,-43.945,0.000
1709720481.351,-102.051,-64.941,-48.340,-119.141,0.000
1709720481.355,-87.891,-45.410,-34.668,-99.609,0.000
1709720481.359,-47.852,-46.387,-33.691,-63.477,0.000
1709720481.363,-32.227,-56.641,-39.551,-43.457,0.000
1709720481.366,-53.223,-62.012,-34.180,-47.363,0.000
1709720481.370,-80.566,-60.547,-29.297,-81.543,0.000
1709720481.374,-78.613,-53.223,-29.297,-87.402,0.000
1709720481.378,-73.242,-60.059,-40.039,-90.820,0.000
1709720481.382,-51.270,-62.012,-47.852,-68.848,0.000
1709720481.386,-38.574,-60.547,-39.551,-49.316,0.000
1709720481.390,-69.336,-61.523,-40.527,-89.355,0.000
1709720481.394,-104.492,-65.430,-52.246,-128.418,0.000
1709720481.398,-95.215,-67.383,-46.875,-115.234,0.000
1709720481.402,-53.223,-64.941,-35.645,-71.777,0.000
1709720481.405,-57.617,-65.918,-39.551,-81.055,0.000
1709720481.409,-104.980,-66.895,-44.434,-128.906,0.000
1709720481.413,-109.863,-55.176,-37.109,-129.883,0.000
1709720481.417,-54.199,-38.086,-23.926,-76.660,0.000
1709720481.421,-6.348,-35.156,-23.926,-36.133,0.000
1709720481.425,-45.898,-61.523,-48.340,-79.590,0.000
1709720481.429,-93.750,-63.477,-44.434,-118.164,0.000
1709720481.433,-105.957,-47.363,-40.527,-125.488,0.000
1709720481.437,-97.656,-68.848,-54.199,-117.188,0.000
1709720481.441,-64.941,-89.844,-52.246,-87.402,0.000
1709720481.445,-49.316,-78.613,-44.434,-70.312,0.000
1709720481.448,-83.008,-66.895,-41.016,-83.496,0.000
1709720481.452,-120.605,-64.941,-41.504,-114.746,0.000
1709720481.456,-97.168,-53.223,-38.086,-96.191,0.000
1709720481.460,-39.062,-55.176,-36.133,-47.852,0.000
1709720481.464,-19.043,-58.594,-31.250,-25.391,0.000
1709720481.468,-77.637,-57.129,-39.062,-80.078,0.000
1709720481.472,-124.512,-63.965,-45.898,-135.254,0.000
1709720481.476,-83.496,-56.641,-28.809,-97.656,0.000
1709720481.480,-31.250,-59.570,-29.785,-58.105,0.000
1709720481.483,-40.039,-68.848,-46.387,-71.289,0.000
1709720481.487,-69.336,-57.129,-45.898,-88.867,0.000
1709720481.491,-81.543,-47.363,-38.574,-99.121,0.000
1709720481.495,-83.496,-53.223,-37.109,-103.027,0.000
1709720481.499,-59.570,-61.035,-40.527,-73.730,0.000
1709720481.503,-26.855,-50.293,-38.086,-48.340,0.000
1709720481.507,-23.926,-34.180,-18.555,-48.828,0.000
1709720481.511,-69.824,-41.016,-17.090,-81.543,0.000
1709720481.515,-95.215,-53.223,-33.203,-104.492,0.000
1709720481.519,-65.430,-62.500,-39.062,-85.449,0.000
1709720481.523,-9.766,-62.988,-26.855,-28.809,0.000
1709720481.526,-20.996,-65.918,-27.344,-34.180,0.000
1709720481.530,-109.863,-83.984,-51.758,-123.535,0.000
1709720481.534,-110.352,-67.871,-45.410,-124.023,0.000
1709720481.538,-61.523,-52.734,-35.645,-79.590,0.000
1709720481.542,-39.062,-64.453,-39.551,-54.199,0.000
1709720481.546,-56.641,-70.801,-44.922,-68.848,0.000
1709720481.550,-85.938,-57.617,-39.062,-99.121,0.000
1709720481.554,-85.938,-50.781,-34.668,-93.750,0.000
1709720481.558,-63.477,-60.059,-44.434,-82.031,0.000
1709720481.562,-39.062,-71.289,-47.363,-73.242,0.000
1709720481.566,-38.574,-64.453,-39.062,-50.293,0.000
1709720481.569,-76.172,-55.176,-31.738,-59.082,0.000
1709720481.573,-120.117,-68.848,-41.016,-115.723,0.000
1709720481.577,-81.543,-64.453,-47.852,-104.492,0.000
1709720481.581,-13.672,-54.199,-49.316,-32.227,0.000
1709720481.585,-38.574,-65.430,-42.969,-37.598,0.000
1709720481.589,-100.586,-68.848,-30.273,-95.215,0.000
1709720481.593,-108.398,-57.129,-23.438,-101.562,0.000
1709720481.597,-78.613,-59.570,-27.344,-73.730,0.000
1709720481.601,-40.039,-76.172,-32.715,-44.434,0.000
1709720481.605,-42.480,-80.078,-32.227,-44.922,0.000
1709720481.609,-81.543,-65.430,-30.762,-88.867,0.000
1709720481.612,-73.730,-42.969,-14.648,-92.773,0.000
1709720481.616,-49.805,-54.688,-12.695,-65.430,0.000
1709720481.620,-70.312,-94.238,-42.969,-87.402,0.000
1709720481.624,-56.641,-88.867,-41.992,-70.312,0.000
1709720481.628,-64.941,-80.078,-35.156,-75.195,0.000
1709720481.632,-112.793,-83.496,-35.645,-116.211,0.000
1709720481.636,-103.027,-73.730,-22.949,-103.027,0.000
1709720481.640,-41.504,-72.266,-13.672,-52.246,0.000
1709720481.644,-17.090,-69.336,-13.184,-27.344,0.000
1709720481.648,-58.594,-58.105,-20.508,-55.664,0.000
1709720481.652,-99.609,-59.570,-24.414,-95.215,0.000
1709720481.655,-83.984,-57.129,-20.996,-83.984,0.000
1709720481.659,-32.227,-55.176,-19.043,-36.133,0.000
1709720481.663,-46.875,-80.566,-38.574,-46.387,0.000
1709720481.667,-86.914,-77.637,-45.410,-81.543,0.000
1709720481.671,-91.309,-52.246,-30.273,-91.309,0.000
1709720481.675,-87.891,-53.711,-29.785,-93.262,0.000
1709720481.679,-59.570,-69.824,-33.691,-87.891,0.000
1709720481.683,-25.879,-74.707,-38.574,-64.453,0.000
1709720481.687,-47.363,-72.266,-36.621,-63.965,0.000
1709720481.691,-88.867,-71.289,-32.227,-101.562,0.000
1709720481.695,-90.332,-65.430,-29.785,-104.980,0.000
1709720481.698,-54.199,-62.012,-32.227,-71.777,0.000
1709720481.702,-6.836,-57.129,-32.715,-24.414,0.000
1709720481.706,-24.902,-59.570,-32.227,-34.180,0.000
1709720481.710,-118.164,-75.195,-53.711,-122.070,0.000
1709720481.714,-120.117,-67.383,-50.781,-123.535,0.000
1709720481.718,-70.801,-63.477,-43.945,-74.707,0.000
1709720481.722,-51.758,-74.707,-41.992,-55.176,0.000
1709720481.726,-58.594,-79.590,-35.645,-76.660,0.000
1709720481.730,-77.637,-62.988,-26.367,-98.145,0.000
1709720481.734,-79.590,-52.734,-21.973,-105.469,0.000
1709720481.738,-65.430,-56.152,-32.715,-98.633,0.000
1709720481.741,-35.156,-57.617,-34.668,-54.199,0.000
1709720481.745,-29.297,-52.734,-25.391,-40.039,0.000
1709720481.749,-66.406,-49.316,-19.043,-79.102,0.000
1709720481.753,-115.723,-65.918,-30.273,-113.281,0.000
1709720481.757,-102.539,-70.312,-40.527,-100.098,0.000
1709720481.761,-27.832,-49.316,-27.344,-44.922,0.000
1709720481.765,-7.812,-38.574,-14.160,-18.066,0.000
1709720481.769,-92.285,-53.223,-31.738,-95.703,0.000
1709720481.773,-120.117,-57.129,-38.086,-135.742,0.000
1709720481.777,-62.012,-50.781,-23.926,-84.473,0.000
1709720481.781,-22.461,-51.758,-17.578,-44.434,0.000
1709720481.784,-31.738,-59.570,-19.531,-44.434,0.000
1709720481.788,-77.637,-62.988,-21.484,-75.684,0.000
1709720481.792,-81.543,-43.457,-3.906,-79.590,0.000
1709720481.796,-53.711,-36.621,-1.953,-50.293,0.000
1709720481.800,-69.824,-68.848,-42.480,-71.777,0.000
1709720481.804,-58.105,-68.848,-37.109,-57.129,0.000
1709720481.808,-69.336,-51.758,-21.484,-65.918,0.000
1709720481.812,-105.957,-51.758,-30.762,-119.629,0.000
1709720481.816,-99.609,-54.199,-31.250,-117.676,0.000
1709720481.820,-41.016,-44.922,-20.020,-60.059,0.000
1709720481.823,-17.578,-51.270,-27.832,-39.551,0.000
1709720481.827,-62.012,-65.430,-37.598,-78.613,0.000
1709720481.831,-97.656,-63.965,-29.297,-104.004,0.000
1709720481.835,-82.031,-49.316,-27.344,-83.008,0.000
1709720481.839,-20.508,-37.109,-22.949,-34.668,0.000
1709720481.843,-15.625,-48.340,-29.785,-47.852,0.000
1709720481.847,-61.035,-56.152,-41.992,-84.961,0.000
1709720481.851,-79.102,-48.828,-32.715,-91.797,0.000
1709720481.855,-75.195,-47.852,-29.297,-104.980,0.000
1709720481.859,-51.758,-62.012,-34.180,-94.238,0.000
1709720481.863,-27.344,-63.965,-35.645,-56.152,0.000
1709720481.866,-39.551,-54.199,-34.180,-55.176,0.000
1709720481.870,-81.543,-50.781,-34.180,-94.727,0.000
1709720481.874,-86.914,-46.387,-35.156,-100.098,0.000
1709720481.878,-42.480,-44.922,-30.762,-59.082,0.000
1709720481.882,5.859,-47.363,-18.555,-12.207,0.000
1709720481.886,-13.184,-55.664,-20.996,-26.367,0.000
1709720481.890,-85.449,-62.500,-34.180,-93.750,0.000
1709720481.894,-117.188,-57.617,-34.668,-122.070,0.000
1709720481.898,-56.152,-45.410,-17.578,-53.711,0.000
1709720481.901,-17.090,-54.688,-13.672,-11.719,0.000
1709720481.905,-70.312,-73.242,-39.062,-67.383,0.000
1709720481.909,-89.355,-56.641,-28.320,-87.402,0.000
1709720481.913,-88.867,-46.387,-16.113,-96.191,0.000
1709720481.917,-62.012,-50.293,-18.555,-83.496,0.000
1709720481.921,-23.438,-60.547,-17.578,-52.734,0.000
1709720481.925,-19.043,-62.988,-19.531,-38.086,0.000
1709720481.929,-42.480,-50.293,-21.973,-63.965,0.000
1709720481.933,-76.172,-48.340,-31.738,-107.910,0.000
1709720481.937,-86.426,-58.594,-43.945,-108.887,0.000
1709720481.941,-41.016,-56.641,-37.598,-59.082,0.000
1709720481.944,-7.324,-48.340,-24.902,-33.203,0.000
1709720481.948,-67.383,-56.152,-33.691,-83.008,0.000
1709720481.952,-107.422,-54.688,-35.645,-107.422,0.000
1709720481.956,-68.359,-41.016,-26.367,-80.078,0.000
1709720481.960,-25.879,-47.852,-22.461,-49.805,0.000
1709720481.964,-42.969,-63.965,-25.879,-49.805,0.000
1709720481.968,-74.707,-64.453,-33.691,-72.266,0.000
1709720481.972,-85.449,-56.152,-31.250,-89.355,0.000
1709720481.976,-66.895,-53.223,-27.344,-78.613,0.000
1709720481.980,-33.203,-58.594,-29.785,-45.898,0.000
1709720481.984,-28.320,-62.012,-29.785,-35.645,0.000
1709720481.987,-31.250,-47.363,-22.949,-42.480,0.000
1709720481.991,-60.059,-40.527,-21.973,-68.848,0.000
1709720481.995,-108.887,-62.500,-42.480,-125.000,0.000
1709720481.999,-64.941,-59.570,-40.527,-91.797,0.000
1709720482.003,-31.738,-55.664,-31.250,-56.641,0.000
1709720482.007,-59.570,-65.430,-39.551,-81.055,0.000
1709720482.011,-103.516,-67.383,-44.434,-111.816,0.000
1709720482.015,-104.492,-57.617,-34.180,-105.957,0.000
1709720482.019,-52.246,-48.828,-30.762,-69.824,0.000
1709720482.023,-19.043,-48.828,-33.203,-45.898,0.000
1709720482.027,-43.457,-58.105,-37.598,-58.105,0.000
1709720482.030,-73.730,-54.688,-37.109,-81.543,0.000
1709720482.034,-61.035,-37.598,-20.020,-68.359,0.000
1709720482.038,-63.965,-58.594,-34.668,-73.730,0.000
1709720482.042,-41.992,-71.289,-43.457,-60.547,0.000
1709720482.046,-24.414,-52.734,-26.367,-43.457,0.000
1709720482.050,-70.801,-46.875,-26.855,-79.102,0.000
1709720482.054,-107.422,-52.246,-32.715,-107.422,0.000
1709720482.058,-69.336,-55.664,-30.273,-70.801,0.000
1709720482.062,-23.438,-50.781,-28.320,-26.855,0.000
1709720482.066,-35.645,-52.734,-36.621,-49.805,0.000
1709720482.070,-73.242,-56.152,-37.598,-89.844,0.000
1709720482.073,-88.867,-61.035,-33.203,-109.863,0.000
1709720482.077,-39.062,-48.828,-21.484,-64.941,0.000
1709720482.081,1.465,-41.504,-10.742,-16.602,0.000
1709720482.085,-59.082,-66.895,-33.691,-72.754,0.000
1709720482.089,-96.680,-60.547,-38.574,-102.051,0.000
1709720482.093,-101.562,-48.828,-32.227,-106.934,0.000
1709720482.097,-80.566,-55.664,-33.203,-102.539,0.000
1709720482.101,-34.668,-60.059,-29.297,-61.035,0.000
1709720482.105,-21.973,-53.711,-26.855,-32.227,0.000
1709720482.109,-70.312,-53.223,-32.715,-64.941,0.000
1709720482.113,-108.398,-51.270,-33.691,-107.422,0.000
1709720482.116,-80.078,-54.688,-39.551,-87.891,0.000
1709720482.120,-36.133,-68.848,-41.504,-47.852,0.000
1709720482.124,-25.391,-64.941,-28.809,-36.621,0.000
1709720482.128,-83.008,-63.965,-38.574,-90.332,0.000
1709720482.132,-109.375,-61.523,-40.527,-117.676,0.000
1709720482.136,-61.035,-52.246,-25.879,-71.289,0.000
1709720482.140,-29.785,-42.969,-27.832,-42.969,0.000
1709720482.144,-41.992,-44.434,-39.062,-64.941,0.000
1709720482.148,-62.988,-42.480,-41.016,-82.031,0.000
1709720482.152,-78.125,-33.203,-27.344,-86.426,0.000
1709720482.155,-83.984,-36.133,-32.715,-92.773,0.000
1709720482.159,-57.617,-45.898,-46.875,-63.965,0.000
1709720482.163,-39.062,-51.270,-39.551,-41.016,0.000
1709720482.167,-49.805,-50.293,-31.250,-45.898,0.000
1709720482.171,-76.660,-44.434,-34.668,-73.730,0.000
1709720482.175,-103.516,-56.152,-52.734,-127.441,0.000
1709720482.179,-62.988,-59.570,-54.199,-104.004,0.000
1709720482.183,-15.625,-44.922,-39.551,-40.039,0.000
1709720482.187,-49.316,-49.316,-44.434,-61.523,0.000
1709720482.191,-106.445,-61.523,-57.617,-124.023,0.000
1709720482.195,-99.121,-58.594,-47.852,-104.492,0.000
1709720482.198,-58.105,-48.828,-42.969,-64.941,0.000
1709720482.202,-44.922,-52.734,-53.711,-59.082,0.000
1709720482.206,-53.711,-57.129,-48.340,-67.383,0.000
1709720482.210,-63.965,-45.898,-27.344,-85.449,0.000
1709720482.214,-60.547,-41.016,-26.367,-88.379,0.000
1709720482.218,-54.199,-46.875,-40.039,-84.473,0.000
1709720482.222,-48.828,-54.688,-44.434,-75.684,0.000
1709720482.226,-42.969,-65.430,-35.645,-61.035,0.000
1709720482.230,-73.730,-66.895,-32.715,-87.402,0.000
1709720482.233,-98.633,-56.641,-31.250,-107.910,0.000
1709720482.237,-66.895,-55.176,-33.691,-83.496,0.000
1709720482.241,-24.414,-56.641,-40.039,-51.758,0.000
1709720482.245,-37.109,-55.664,-37.598,-55.176,0.000
1709720482.249,-83.496,-58.594,-34.668,-96.191,0.000
1709720482.253,-91.309,-53.223,-39.062,-115.723,0.000
1709720482.257,-39.062,-41.992,-26.367,-63.965,0.000
1709720482.261,-5.859,-44.922,-18.555,-25.391,0.000
1709720482.265,-39.551,-60.059,-39.062,-55.664,0.000
1709720482.269,-78.613,-57.617,-43.945,-103.027,0.000
1709720482.273,-58.105,-35.156,-22.461,-83.008,0.000
1709720482.276,-38.086,-39.551,-21.484,-66.406,0.000
1709720482.280,-56.152,-62.500,-41.992,-90.820,0.000
1709720482.284,-40.527,-53.223,-33.691,-62.012,0.000
1709720482.288,-55.176,-38.086,-26.367,-73.242,0.000
1709720482.292,-84.961,-48.340,-37.109,-104.004,0.000
1709720482.296,-75.195,-52.246,-42.480,-94.238,0.000
1709720482.300,-32.227,-49.805,-40.039,-56.641,0.000
1709720482.304,-21.973,-59.082,-38.574,-35.156,0.000
1709720482.308,-59.082,-55.176,-36.133,-70.801,0.000
1709720482.312,-89.355,-53.711,-38.086,-113.281,0.000
1709720482.316,-64.941,-46.387,-31.250,-87.891,0.000
1709720482.319,-30.273,-51.758,-24.902,-44.434,0.000
1709720482.323,-56.152,-71.777,-39.062,-65.918,0.000
1709720482.327,-80.078,-62.988,-39.551,-91.309,0.000
1709720482.331,-82.031,-57.129,-29.297,-98.633,0.000
1709720482.335,-81.543,-67.383,-29.297,-100.098,0.000
1709720482.339,-65.918,-76.660,-43.457,-85.938,0.000
1709720482.343,-45.898,-66.406,-46.875,-69.336,0.000
1709720482.347,-50.293,-49.316,-36.621,-68.359,0.000
1709720482.351,-72.266,-48.340,-31.738,-93.750,0.000
1709720482.355,-69.824,-49.316,-29.785,-109.863,0.000
1709720482.359,-60.547,-54.199,-33.203,-86.426,0.000
1709720482.362,-34.668,-52.246,-23.926,-36.133,0.000
1709720482.366,-32.715,-58.105,-20.508,-35.156,0.000
1709720482.370,-104.004,-79.102,-41.016,-115.723,0.000
1709720482.374,-104.492,-66.895,-37.109,-111.816,0.000
1709720482.378,-60.547,-53.711,-26.367,-70.801,0.000
1709720482.382,-50.293,-57.617,-27.832,-59.570,0.000
1709720482.386,-69.824,-58.105,-33.691,-68.359,0.000
1709720482.390,-75.195,-43.457,-30.273,-92.773,0.000
1709720482.394,-80.566,-39.062,-34.180,-104.004,0.000
1709720482.398,-67.383,-43.945,-41.016,-82.031,0.000
1709720482.402,-52.734,-56.152,-37.598,-72.754,0.000
1709720482.405,-59.082,-63.965,-33.203,-83.008,0.000
1709720482.409,-66.895,-54.688,-26.367,-86.914,0.000
1709720482.413,-102.539,-58.594,-36.133,-122.070,0.000
1709720482.417,-92.773,-53.711,-34.668,-113.281,0.000
1709720482.421,-41.016,-39.062,-28.320,-62.500,0.000
1709720482.425,-35.156,-47.363,-35.645,-61.523,0.000
1709720482.429,-75.684,-55.664,-37.598,-105.957,0.000
1709720482.433,-89.355,-52.246,-37.598,-123.535,0.000
1709720482.437,-60.547,-48.828,-29.785,-89.355,0.000
1709720482.441,-42.480,-53.711,-25.879,-57.129,0.000
1709720482.445,-46.875,-51.270,-32.227,-53.711,0.000
1709720482.448,-71.289,-49.805,-34.180,-80.566,0.000
1709720482.452,-67.871,-44.922,-20.020,-82.031,0.000
1709720482.456,-58.594,-41.016,-14.160,-67.383,0.000
1709720482.460,-81.055,-59.082,-41.016,-87.891,0.000
1709720482.464,-71.289,-63.477,-45.410,-78.613,0.000
1709720482.468,-79.590,-63.965,-42.969,-89.844,0.000
1709720482.472,-102.051,-64.941,-43.945,-116.211,0.000
1709720482.476,-89.355,-57.129,-34.180,-103.516,0.000
1709720482.480,-48.340,-56.152,-31.738,-68.359,0.000
1709720482.484,-43.945,-58.105,-38.086,-60.547,0.000
1709720482.488,-76.172,-55.664,-33.203,-82.520,0.000
1709720482.491,-83.984,-48.828,-14.648,-92.285,0.000
1709720482.495,-76.660,-49.805,-20.020,-87.891,0.000
1709720482.499,-45.410,-51.270,-24.902,-52.246,0.000
1709720482.503,-40.527,-58.105,-24.902,-51.270,0.000
1709720482.507,-70.801,-69.824,-38.086,-85.449,0.000
1709720482.511,-76.172,-58.105,-35.645,-98.633,0.000
1709720482.515,-63.965,-47.363,-30.273,-91.797,0.000
1709720482.519,-51.270,-51.270,-36.621,-68.359,0.000
1709720482.523,-39.062,-43.945,-33.203,-46.875,0.000
1709720482.527,-45.410,-37.109,-23.438,-48.828,0.000
1709720482.530,-76.172,-47.852,-22.949,-85.938,0.000
1709720482.534,-82.520,-51.758,-29.297,-101.562,0.000
1709720482.538,-55.176,-53.711,-30.762,-67.871,0.000
1709720482.542,-24.902,-43.457,-24.414,-26.367,0.000
1709720482.546,-17.090,-26.367,-30.762,-24.902,0.000
1709720482.550,-79.102,-46.875,-47.852,-93.262,0.000
1709720482.554,-104.980,-59.082,-32.715,-112.793,0.000
1709720482.558,-83.008,-55.664,-12.695,-83.008,0.000
1709720482.562,-75.684,-66.406,-11.719,-72.754,0.000
1709720482.566,-92.773,-83.984,-18.555,-90.820,0.000
1709720482.570,-103.516,-83.984,-5.859,-107.910,0.000
1709720482.573,-111.816,-84.473,7.324,-121.582,0.000
1709720482.577,-114.746,-94.727,5.859,-118.652,0.000
1709720482.581,-86.426,-87.891,9.277,-86.914,0.000
1709720482.585,-68.848,-80.566,8.301,-72.266,0.000
1709720482.589,-81.055,-79.102,9.766,-75.195,0.000
1709720482.593,-121.582,-91.309,3.906,-112.793,0.000
1709720482.597,-120.117,-97.168,-6.348,-120.605,0.000
1709720482.601,-73.730,-90.332,-0.977,-73.730,0.000
1709720482.605,-67.383,-89.355,-3.906,-66.406,0.000
1709720482.608,-93.262,-83.008,-11.230,-100.586,0.000
1709720482.612,-102.539,-71.777,-12.695,-106.934,0.000
1709720482.616,-72.754,-65.918,0.488,-68.359,0.000
1709720482.620,-53.223,-72.266,0.977,-57.129,0.000
1709720482.624,-69.824,-84.961,-15.625,-78.125,0.000
1709720482.628,-87.891,-84.473,-17.090,-97.656,0.000
1709720482.632,-80.078,-68.848,-9.766,-93.262,0.000
1709720482.636,-68.848,-69.336,-20.508,-80.566,0.000
1709720482.640,-66.406,-75.684,-32.715,-75.195,0.000
1709720482.644,-74.219,-77.148,-33.203,-79.102,0.000
1709720482.648,-59.082,-71.289,-19.531,-58.594,0.000
1709720482.651,-72.754,-81.543,-21.484,-62.012,0.000
1709720482.655,-114.258,-92.285,-48.828,-112.305,0.000
1709720482.659,-70.312,-68.848,-38.086,-73.730,0.000
1709720482.663,-45.410,-58.105,-21.973,-44.922,0.000
1709720482.667,-72.266,-67.383,-29.785,-80.078,0.000
1709720482.671,-90.332,-77.637,-38.574,-104.492,0.000
1709720482.675,-72.754,-75.684,-33.203,-86.914,0.000
1709720482.679,-45.410,-64.941,-24.902,-61.035,0.000
1709720482.683,-46.875,-73.730,-39.062,-62.988,0.000
1709720482.687,-71.777,-82.031,-60.059,-86.426,0.000
1709720482.691,-83.496,-67.871,-51.758,-91.309,0.000
1709720482.694,-70.801,-64.453,-33.203,-78.613,0.000
1709720482.698,-72.266,-71.777,-38.574,-82.520,0.000
1709720482.702,-63.477,-69.824,-42.969,-73.242,0.000
1709720482.706,-40.527,-60.547,-26.855,-57.129,0.000
1709720482.710,-59.082,-63.477,-25.879,-78.613,0.000
1709720482.714,-86.426,-72.754,-34.668,-94.727,0.000
1709720482.718,-62.988,-67.383,-27.832,-64.941,0.000
1709720482.722,-35.156,-56.152,-18.555,-37.598,0.000
1709720482.726,-43.945,-57.129,-26.367,-43.945,0.000
1709720482.730,-76.660,-67.383,-37.598,-80.566,0.000
1709720482.734,-85.938,-72.754,-38.574,-102.539,0.000
1709720482.737,-44.922,-58.105,-20.996,-56.152,0.000
1709720482.741,-18.066,-43.457,-13.184,-18.555,0.000
1709720482.745,-65.430,-69.336,-39.062,-79.590,0.000
1709720482.749,-88.379,-79.590,-41.992,-110.352,0.000
1709720482.753,-81.543,-77.637,-32.715,-93.750,0.000
1709720482.757,-69.824,-80.078,-38.574,-77.637,0.000
1709720482.761,-60.059,-70.801,-47.852,-62.012,0.000
1709720482.765,-53.711,-57.129,-39.551,-52.734,0.000
1709720482.769,-58.594,-62.012,-29.297,-64.941,0.000
1709720482.773,-76.660,-70.312,-26.367,-83.984,0.000
1709720482.777,-73.242,-65.918,-29.785,-84.473,0.000
1709720482.780,-40.527,-56.641,-26.855,-56.641,0.000
1709720482.784,-18.555,-47.363,-18.066,-24.414,0.000
1709720482.788,-69.336,-65.918,-30.762,-69.336,0.000
1709720482.792,-104.004,-72.266,-35.156,-111.328,0.000
1709720482.796,-71.289,-55.664,-32.227,-78.613,0.000
1709720482.800,-55.664,-57.617,-37.109,-55.664,0.000
1709720482.804,-67.871,-64.941,-42.480,-66.406,0.000
1709720482.808,-72.266,-65.430,-44.922,-81.055,0.000
1709720482.812,-74.219,-63.965,-38.574,-84.473,0.000
1709720482.816,-65.430,-65.430,-36.621,-83.984,0.000
1709720482.820,-37.598,-57.129,-31.738,-55.664,0.000
1709720482.823,-40.039,-56.152,-27.344,-46.387,0.000
1709720482.827,-52.734,-66.895,-24.414,-56.152,0.000
1709720482.831,-55.664,-61.523,-15.137,-57.129,0.000
1709720482.835,-89.844,-77.637,-38.574,-103.027,0.000
1709720482.839,-66.406,-87.402,-56.152,-96.191,0.000
1709720482.843,-30.762,-74.707,-43.945,-59.570,0.000
1709720482.847,-53.711,-67.871,-37.109,-68.359,0.000
1709720482.851,-87.891,-64.453,-46.387,-105.957,0.000
1709720482.855,-83.496,-62.988,-41.504,-107.422,0.000
1709720482.859,-59.082,-57.617,-35.645,-69.336,0.000
1709720482.862,-43.945,-59.570,-30.762,-51.758,0.000
1709720482.866,-50.781,-58.594,-19.531,-56.641,0.000
1709720482.870,-70.801,-56.641,-28.320,-79.102,0.000
1709720482.874,-48.340,-49.805,-28.320,-69.336,0.000
1709720482.878,-52.246,-57.129,-38.086,-67.871,0.000
1709720482.882,-61.523,-61.523,-45.410,-71.289,0.000
1709720482.886,-46.875,-47.852,-33.203,-60.059,0.000
1709720482.890,-67.871,-52.246,-31.738,-81.543,0.000
1709720482.894,-91.797,-63.477,-35.156,-101.562,0.000
1709720482.898,-71.777,-56.152,-32.227,-81.543,0.000
1709720482.902,-36.621,-42.969,-23.926,-45.898,0.000
1709720482.905,-56.152,-47.852,-24.902,-62.500,0.000
1709720482.909,-89.844,-53.223,-30.273,-94.727,0.000
1709720482.913,-76.172,-54.688,-27.832,-86.426,0.000
1709720482.917,-31.738,-49.316,-23.926,-46.875,0.000
1709720482.921,-13.672,-47.852,-30.273,-18.555,0.000
1709720482.925,-68.359,-70.801,-44.922,-67.383,0.000
1709720482.929,-91.309,-69.336,-41.992,-97.168,0.000
1709720482.933,-80.078,-58.105,-33.691,-95.703,0.000
1709720482.937,-70.312,-62.988,-29.297,-91.797,0.000
1709720482.941,-50.293,-51.758,-30.762,-66.406,0.000
1709720482.944,-41.504,-41.016,-30.762,-44.434,0.000
1709720482.948,-59.082,-55.176,-30.273,-66.406,0.000
1709720482.952,-74.707,-67.871,-34.668,-92.773,0.000
1709720482.956,-60.547,-71.289,-38.086,-78.125,0.000
1709720482.960,-25.879,-56.641,-26.855,-43.945,0.000
1709720482.964,-6.836,-45.410,-14.648,-23.438,0.000
1709720482.968,-58.594,-73.242,-38.086,-72.754,0.000
1709720482.972,-97.168,-74.707,-50.781,-117.676,0.000
1709720482.976,-62.988,-50.781,-33.203,-77.148,0.000
1709720482.980,-42.969,-58.105,-31.250,-46.387,0.000
1709720482.983,-60.059,-65.918,-36.133,-62.500,0.000
1709720482.987,-74.707,-62.012,-39.062,-76.172,0.000
1709720482.991,-68.359,-59.570,-42.969,-77.637,0.000
1709720482.995,-64.941,-63.965,-44.922,-86.426,0.000
1709720482.999,-57.617,-64.941,-42.969,-77.148,0.000
1709720483.003,-44.922,-49.316,-35.645,-52.246,0.000
1709720483.007,-33.691,-41.992,-24.414,-41.992,0.000
1709720483.011,-47.852,-49.316,-28.809,-65.430,0.000
1709720483.015,-73.242,-58.594,-41.016,-92.773,0.000
1709720483.019,-60.059,-61.035,-40.527,-75.195,0.000
1709720483.022,-21.973,-53.711,-31.738,-40.039,0.000
1709720483.026,-41.504,-55.664,-33.691,-54.688,0.000
1709720483.030,-103.516,-82.031,-51.270,-109.863,0.000
1709720483.034,-89.844,-78.125,-42.480,-96.680,0.000
1709720483.038,-59.082,-59.570,-38.574,-63.965,0.000
1709720483.042,-48.340,-55.664,-42.480,-62.988,0.000
1709720483.046,-63.477,-58.105,-41.016,-79.102,0.000
1709720483.050,-75.195,-52.246,-41.992,-79.590,0.000
1709720483.054,-67.871,-46.387,-42.969,-78.613,0.000
1709720483.058,-64.941,-58.594,-41.992,-83.496,0.000
1709720483.062,-54.199,-63.477,-44.434,-78.125,0.000
1709720483.065,-47.852,-57.617,-38.086,-66.406,0.000
1709720483.069,-66.406,-61.035,-31.250,-77.148,0.000
1709720483.073,-92.285,-68.848,-43.945,-108.398,0.000
1709720483.077,-79.590,-66.895,-44.922,-96.680,0.000
1709720483.081,-44.434,-53.711,-32.715,-53.711,0.000
1709720483.085,-53.223,-52.246,-33.691,-59.082,0.000
1709720483.089,-89.355,-61.523,-39.062,-97.168,0.000
1709720483.093,-93.750,-60.059,-36.621,-98.633,0.000
1709720483.097,-62.500,-53.711,-34.180,-72.266,0.000
1709720483.101,-35.156,-46.387,-34.668,-48.340,0.000
1709720483.105,-43.945,-45.898,-30.273,-52.734,0.000
1709720483.108,-75.195,-56.152,-37.598,-84.961,0.000
1709720483.112,-65.918,-54.199,-38.574,-81.543,0.000
1709720483.116,-39.551,-46.875,-27.832,-52.246,0.000
1709720483.120,-68.359,-64.941,-49.316,-80.566,0.000
1709720483.124,-65.430,-61.523,-57.617,-78.613,0.000
1709720483.128,-63.965,-52.734,-48.340,-81.543,0.000
1709720483.132,-88.867,-69.336,-46.875,-115.234,0.000
1709720483.136,-85.449,-76.172,-52.734,-104.980,0.000
1709720483.140,-55.176,-61.035,-47.363,-65.918,0.000
1709720483.144,-51.270,-50.781,-37.598,-58.105,0.000
1709720483.148,-64.453,-58.594,-30.273,-71.777,0.000
1709720483.151,-83.496,-64.941,-34.180,-91.797,0.000
1709720483.155,-68.848,-52.246,-39.551,-80.566,0.000
1709720483.159,-20.020,-38.086,-24.414,-39.062,0.000
1709720483.163,-45.410,-50.781,-38.086,-62.988,0.000
1709720483.167,-75.195,-63.965,-54.199,-95.703,0.000
1709720483.171,-64.453,-57.617,-43.945,-89.844,0.000
1709720483.175,-59.082,-65.918,-40.039,-91.797,0.000
1709720483.179,-55.176,-70.312,-37.598,-77.148,0.000
1709720483.183,-48.340,-58.105,-35.645,-58.594,0.000
1709720483.187,-52.734,-54.688,-38.086,-70.312,0.000
1709720483.191,-69.336,-52.734,-39.062,-97.168,0.000
1709720483.194,-74.219,-51.758,-43.457,-96.680,0.000
1709720483.198,-57.617,-51.270,-45.410,-69.824,0.000
1709720483.202,-16.113,-43.457,-31.738,-30.762,0.000
1709720483.206,-14.648,-47.363,-28.809,-27.832,0.000
1709720483.210,-91.797,-75.195,-50.293,-107.422,0.000
1709720483.214,-93.750,-71.777,-45.898,-114.746,0.000
1709720483.218,-51.270,-59.082,-39.062,-77.148,0.000
1709720483.222,-42.480,-59.570,-35.156,-70.312,0.000
1709720483.226,-49.805,-59.570,-25.391,-75.684,0.000
1709720483.230,-58.105,-43.945,-21.973,-87.891,0.000
1709720483.234,-60.059,-43.945,-24.414,-89.355,0.000
1709720483.237,-55.664,-59.570,-31.738,-75.195,0.000
1709720483.241,-45.410,-56.641,-35.156,-53.711,0.000
1709720483.245,-56.152,-47.852,-33.203,-57.617,0.000
1709720483.249,-61.523,-46.875,-32.227,-71.289,0.000
1709720483.253,-87.891,-64.941,-44.922,-104.004,0.000
1709720483.257,-80.078,-63.965,-43.457,-102.539,0.000
1709720483.261,-35.156,-52.734,-26.855,-57.129,0.000
1709720483.265,-44.434,-62.012,-36.621,-62.012,0.000
1709720483.269,-81.543,-69.824,-46.387,-99.609,0.000
1709720483.273,-92.285,-65.918,-44.922,-108.398,0.000
1709720483.276,-61.523,-43.945,-46.387,-77.637,0.000
1709720483.280,-39.551,-40.039,-46.387,-55.664,0.000
1709720483.284,-49.316,-54.688,-39.551,-57.129,0.000
1709720483.288,-64.453,-50.781,-33.691,-69.336,0.000
1709720483.292,-52.246,-39.551,-25.391,-60.547,0.000
1709720483.296,-28.809,-35.156,-16.602,-37.109,0.000
1709720483.300,-50.293,-51.758,-37.109,-64.941,0.000
1709720483.304,-52.734,-56.152,-34.180,-59.082,0.000
1709720483.308,-58.594,-49.316,-30.762,-69.824,0.000
1709720483.312,-86.426,-51.758,-46.875,-113.281,0.000
1709720483.316,-83.496,-54.199,-46.387,-114.746,0.000
1709720483.319,-48.828,-41.504,-42.480,-80.078,0.000
1709720483.323,-46.387,-49.316,-50.293,-63.477,0.000
1709720483.327,-81.055,-60.547,-47.852,-83.984,0.000
1709720483.331,-98.145,-58.594,-41.504,-104.980,0.000
1709720483.335,-73.730,-59.570,-39.062,-88.379,0.000
1709720483.339,-44.922,-53.711,-34.668,-62.012,0.000
1709720483.343,-65.918,-59.570,-43.457,-75.684,0.000
1709720483.347,-88.867,-61.523,-54.688,-101.562,0.000
1709720483.351,-83.984,-49.805,-55.664,-106.934,0.000
1709720483.354,-82.520,-51.270,-51.270,-101.074,0.000
1709720483.358,-71.289,-62.988,-42.969,-82.031,0.000
1709720483.362,-60.547,-68.359,-36.133,-62.012,0.000
1709720483.366,-60.547,-58.105,-30.273,-61.523,0.000
1709720483.370,-83.008,-50.293,-39.551,-92.773,0.000
1709720483.374,-102.051,-55.176,-53.223,-107.422,0.000
1709720483.378,-73.242,-49.805,-44.434,-78.613,0.000
1709720483.382,-28.809,-41.016,-23.926,-38.086,0.000
1709720483.386,-33.203,-45.410,-20.508,-42.480,0.000
1709720483.390,-83.984,-66.895,-37.598,-99.121,0.000
1709720483.394,-100.098,-75.195,-44.434,-112.305,0.000
1709720483.397,-43.945,-49.316,-26.367,-51.758,0.000
1709720483.401,-26.367,-46.387,-27.344,-33.691,0.000
1709720483.405,-83.496,-64.453,-48.340,-87.891,0.000
1709720483.409,-90.820,-49.805,-41.504,-95.703,0.000
1709720483.413,-72.754,-49.805,-35.156,-90.820,0.000
1709720483.417,-62.500,-63.965,-47.363,-85.938,0.000
1709720483.421,-54.688,-60.547,-55.664,-71.777,0.000
1709720483.425,-49.805,-55.176,-40.527,-59.082,0.000
1709720483.429,-62.012,-46.387,-28.320,-70.801,0.000
1709720483.433,-74.707,-40.039,-36.133,-87.402,0.000
1709720483.437,-81.055,-50.293,-47.363,-94.727,0.000
1709720483.440,-57.617,-50.781,-36.621,-68.848,0.000
1709720483.444,-41.504,-43.945,-27.344,-49.805,0.000
1709720483.448,-85.938,-52.246,-36.133,-94.238,0.000
1709720483.452,-104.004,-59.570,-42.480,-123.047,0.000
1709720483.456,-78.613,-61.523,-37.109,-99.609,0.000
1709720483.460,-53.223,-57.129,-29.785,-64.453,0.000
1709720483.464,-55.176,-53.711,-31.738,-64.453,0.000
1709720483.468,-76.660,-58.105,-33.203,-86.426,0.000
1709720483.472,-76.172,-54.199,-29.297,-91.797,0.000
1709720483.476,-62.500,-45.410,-30.762,-79.102,0.000
1709720483.480,-50.293,-46.387,-32.227,-65.918,0.000
1709720483.483,-50.781,-53.711,-32.227,-64.453,0.000
1709720483.487,-45.410,-47.363,-26.855,-55.664,0.000
1709720483.491,-62.012,-45.410,-24.902,-64.453,0.000
1709720483.495,-109.375,-62.500,-51.270,-114.258,0.000
1709720483.499,-78.613,-53.223,-44.922,-82.031,0.000
1709720483.503,-43.945,-47.852,-30.762,-60.547,0.000
1709720483.507,-66.895,-50.293,-41.016,-96.191,0.000
1709720483.511,-86.426,-44.922,-32.227,-106.445,0.000
1709720483.515,-70.801,-47.852,-23.926,-92.773,0.000
1709720483.519,-42.480,-55.176,-24.902,-62.988,0.000
1709720483.523,-40.039,-55.176,-26.855,-50.293,0.000
1709720483.526,-53.223,-51.758,-33.203,-71.289,0.000
1709720483.530,-62.500,-50.293,-31.250,-87.402,0.000
1709720483.534,-64.453,-52.734,-19.531,-71.777,0.000
1709720483.538,-74.707,-63.477,-31.250,-80.078,0.000
1709720483.542,-68.848,-54.199,-42.969,-78.125,0.000
1709720483.546,-52.734,-43.945,-35.645,-61.035,0.000
1709720483.550,-72.266,-48.340,-39.062,-83.984,0.000
1709720483.554,-81.543,-42.480,-45.410,-97.168,0.000
1709720483.558,-54.199,-44.434,-40.039,-71.777,0.000
1709720483.562,-32.715,-52.246,-32.227,-42.480,0.000
1709720483.566,-41.016,-54.688,-30.762,-49.805,0.000
1709720483.569,-63.477,-61.035,-35.645,-79.102,0.000
1709720483.573,-75.195,-58.105,-42.969,-92.773,0.000
1709720483.577,-43.457,-43.945,-39.062,-58.594,0.000
1709720483.581,-13.672,-36.621,-23.438,-17.578,0.000
1709720483.585,-69.336,-62.500,-38.086,-65.430,0.000
1709720483.589,-87.891,-73.730,-51.270,-95.215,0.000
1709720483.593,-61.523,-62.500,-46.387,-74.219,0.000
1709720483.597,-75.684,-62.988,-31.250,-72.266,0.000
1709720483.601,-95.703,-62.988,-22.461,-87.402,0.000
1709720483.605,-92.285,-62.988,-21.973,-86.426,0.000
1709720483.609,-126.465,-67.383,-20.020,-123.535,0.000
1709720483.612,-160.156,-67.383,-22.461,-165.527,0.000
1709720483.616,-130.371,-52.734,-14.648,-142.578,0.000
1709720483.620,-114.746,-51.758,-16.602,-121.094,0.000
1709720483.624,-119.629,-50.781,-19.043,-112.793,0.000
1709720483.628,-159.180,-66.406,-31.738,-155.273,0.000
1709720483.632,-187.500,-83.496,-46.875,-198.730,0.000
1709720483.636,-144.531,-63.477,-38.574,-165.039,0.000
1709720483.640,-111.816,-58.105,-35.156,-121.582,0.000
1709720483.644,-118.164,-62.988,-39.551,-115.723,0.000
1709720483.648,-133.301,-62.012,-41.504,-127.930,0.000
1709720483.651,-124.023,-63.477,-38.574,-130.371,0.000
1709720483.655,-107.910,-66.406,-35.645,-119.141,0.000
1709720483.659,-90.332,-66.406,-40.527,-92.773,0.000
1709720483.663,-73.730,-66.895,-47.852,-78.613,0.000
1709720483.667,-62.500,-61.523,-35.645,-81.055,0.000
1709720483.671,-72.754,-62.988,-25.879,-84.961,0.000
1709720483.675,-121.582,-77.148,-45.410,-123.047,0.000
1709720483.679,-99.121,-69.336,-46.387,-103.027,0.000
1709720483.683,-66.895,-61.523,-42.480,-64.941,0.000
1709720483.687,-91.309,-62.012,-47.852,-96.191,0.000
1709720483.691,-112.793,-67.383,-48.828,-128.906,0.000
1709720483.694,-99.609,-60.547,-45.410,-110.352,0.000
1709720483.698,-63.965,-51.758,-40.039,-75.684,0.000
1709720483.702,-61.035,-67.383,-49.805,-67.871,0.000
1709720483.706,-88.867,-76.660,-55.664,-84.473,0.000
1709720483.710,-87.402,-54.688,-43.457,-88.867,0.000
1709720483.714,-59.082,-32.715,-32.227,-66.406,0.000
1709720483.718,-69.824,-52.734,-45.898,-75.684,0.000
1709720483.722,-88.379,-65.430,-54.688,-85.938,0.000
1709720483.726,-75.684,-54.688,-44.434,-73.242,0.000
1709720483.729,-82.520,-60.547,-42.480,-94.238,0.000
1709720483.733,-102.539,-66.406,-41.992,-107.910,0.000
1709720483.737,-77.637,-57.129,-44.922,-82.520,0.000
1709720483.741,-40.527,-42.480,-34.668,-48.340,0.000
1709720483.745,-56.641,-48.828,-36.621,-56.152,0.000
1709720483.749,-91.797,-64.941,-50.781,-91.797,0.000
1709720483.753,-92.285,-70.312,-36.133,-92.285,0.000
1709720483.757,-60.059,-55.664,-16.113,-55.176,0.000
1709720483.761,-43.945,-44.922,-19.531,-37.109,0.000
1709720483.765,-63.477,-55.664,-39.551,-60.059,0.000
1709720483.769,-79.590,-53.223,-44.434,-90.332,0.000
1709720483.772,-66.895,-39.551,-26.367,-77.637,0.000
1709720483.776,-71.289,-48.340,-30.273,-75.684,0.000
1709720483.780,-88.379,-63.965,-52.246,-84.961,0.000
1709720483.784,-73.730,-55.664,-48.340,-60.059,0.000
1709720483.788,-69.336,-52.246,-36.621,-62.012,0.000
1709720483.792,-84.961,-58.594,-36.133,-92.285,0.000
1709720483.796,-89.355,-69.824,-41.992,-90.332,0.000
1709720483.800,-53.223,-55.176,-33.203,-43.457,0.000
1709720483.804,-38.086,-53.223,-24.902,-25.391,0.000
1709720483.808,-73.242,-66.406,-35.156,-68.359,0.000
1709720483.812,-97.168,-62.500,-49.316,-108.398,0.000
1709720483.815,-74.707,-54.199,-50.781,-87.402,0.000
1709720483.819,-42.480,-52.246,-49.316,-53.223,0.000
1709720483.823,-58.105,-55.176,-55.176,-62.012,0.000
1709720483.827,-78.613,-60.547,-59.082,-83.008,0.000
1709720483.831,-73.242,-68.848,-48.340,-89.844,0.000
1709720483.835,-68.848,-68.848,-42.480,-88.379,0.000
1709720483.839,-63.477,-65.918,-46.387,-76.172,0.000
1709720483.843,-57.129,-55.176,-37.598,-64.453,0.000
1709720483.847,-56.641,-50.781,-33.203,-67.383,0.000
1709720483.851,-70.312,-59.570,-39.551,-70.801,0.000
1709720483.855,-76.172,-60.059,-44.434,-80.078,0.000
1709720483.858,-58.105,-52.246,-46.875,-77.637,0.000
1709720483.862,-34.668,-42.969,-34.180,-38.086,0.000
1709720483.866,-34.668,-42.480,-26.367,-31.738,0.000
1709720483.870,-93.750,-62.988,-49.805,-104.980,0.000
1709720483.874,-95.703,-72.754,-52.246,-114.258,0.000
1709720483.878,-61.523,-65.918,-43.457,-82.520,0.000
1709720483.882,-59.570,-63.965,-42.969,-72.754,0.000
1709720483.886,-73.242,-61.035,-50.781,-81.055,0.000
1709720483.890,-79.590,-51.758,-54.688,-98.633,0.000
1709720483.894,-66.406,-48.340,-49.316,-99.121,0.000
1709720483.897,-41.992,-55.664,-42.480,-70.801,0.000
1709720483.901,-40.527,-70.312,-45.410,-53.711,0.000
1709720483.905,-50.293,-64.453,-38.086,-61.523,0.000
1709720483.909,-46.875,-52.734,-16.113,-67.383,0.000
1709720483.913,-83.008,-67.383,-31.738,-104.492,0.000
1709720483.917,-84.473,-59.570,-45.410,-97.656,0.000
1709720483.921,-35.645,-42.969,-28.809,-44.922,0.000
1709720483.925,-37.109,-57.129,-29.785,-50.781,0.000
1709720483.929,-66.895,-54.688,-41.016,-86.914,0.000
1709720483.933,-78.125,-52.734,-37.109,-100.586,0.000
1709720483.937,-58.105,-65.430,-32.227,-75.684,0.000
1709720483.940,-33.203,-62.012,-29.297,-46.387,0.000
1709720483.944,-39.551,-59.082,-32.227,-49.805,0.000
1709720483.948,-64.453,-54.199,-37.109,-77.637,0.000
1709720483.952,-51.270,-45.898,-24.902,-74.219,0.000
1709720483.956,-26.367,-48.828,-22.949,-47.363,0.000
1709720483.960,-62.988,-63.965,-51.270,-72.754,0.000
1709720483.964,-66.895,-69.824,-55.664,-70.312,0.000
1709720483.968,-62.988,-65.918,-48.828,-77.148,0.000
1709720483.972,-92.285,-65.430,-47.363,-112.305,0.000
1709720483.976,-85.449,-60.547,-41.016,-101.074,0.000
1709720483.980,-53.223,-49.805,-42.969,-68.359,0.000
1709720483.983,-44.922,-51.270,-43.945,-48.340,0.000
1709720483.987,-64.453,-60.059,-36.133,-65.918,0.000
1709720483.991,-80.566,-61.523,-35.645,-96.680,0.000
1709720483.995,-70.801,-57.617,-37.109,-88.867,0.000
1709720483.999,-28.809,-55.664,-28.320,-46.387,0.000
1709720484.003,-36.621,-63.965,-39.062,-58.105,0.000
1709720484.007,-71.777,-68.848,-55.176,-95.215,0.000
1709720484.011,-71.777,-64.453,-38.574,-98.633,0.000
1709720484.015,-57.617,-57.617,-35.156,-89.844,0.000
1709720484.019,-48.340,-54.688,-49.316,-73.730,0.000
1709720484.022,-41.504,-52.246,-42.969,-57.617,0.000
1709720484.026,-39.551,-49.805,-30.273,-54.688,0.000
1709720484.030,-73.242,-61.035,-31.250,-80.078,0.000
1709720484.034,-87.402,-67.871,-39.062,-96.680,0.000
1709720484.038,-60.059,-59.570,-38.574,-69.336,0.000
1709720484.042,-27.344,-43.457,-19.043,-33.691,0.000
1709720484.046,-27.832,-37.598,-8.789,-34.180,0.000
1709720484.050,-82.520,-61.035,-31.738,-85.449,0.000
1709720484.054,-86.426,-64.941,-39.551,-97.656,0.000
1709720484.058,-45.410,-47.363,-31.250,-52.246,0.000
1709720484.061,-41.992,-47.852,-28.809,-36.621,0.000
1709720484.065,-65.918,-60.547,-37.109,-68.359,0.000
1709720484.069,-76.172,-61.523,-33.203,-85.938,0.000
1709720484.073,-75.195,-49.316,-27.832,-86.914,0.000
1709720484.077,-62.012,-43.945,-31.738,-72.266,0.000
1709720484.081,-46.387,-50.781,-35.156,-48.340,0.000
1709720484.085,-42.480,-49.805,-28.809,-42.969,0.000
1709720484.089,-51.270,-47.852,-20.508,-58.105,0.000
1709720484.093,-77.148,-54.199,-35.645,-96.191,0.000
1709720484.097,-68.848,-50.293,-46.387,-90.820,0.000
1709720484.101,-37.598,-40.527,-29.785,-38.574,0.000
1709720484.104,-52.734,-45.410,-32.715,-41.016,0.000
1709720484.108,-83.496,-51.758,-37.598,-78.613,0.000
1709720484.112,-83.008,-53.223,-31.738,-89.844,0.000
1709720484.116,-58.594,-56.641,-28.809,-68.359,0.000
1709720484.120,-48.828,-50.293,-24.902,-48.828,0.000
1709720484.124,-64.941,-57.617,-36.133,-60.547,0.000
1709720484.128,-77.637,-67.871,-38.574,-89.844,0.000
1709720484.132,-55.176,-50.781,-24.902,-70.801,0.000
1709720484.136,-40.039,-41.504,-25.879,-48.340,0.000
1709720484.140,-53.711,-60.059,-41.504,-66.895,0.000
1709720484.143,-55.664,-66.895,-42.480,-69.336,0.000
1709720484.147,-42.480,-51.758,-27.344,-43.945,0.000
1709720484.151,-72.266,-57.129,-32.715,-72.754,0.000
1709720484.155,-92.285,-68.848,-45.410,-110.840,0.000
1709720484.159,-45.898,-61.035,-35.645,-63.965,0.000
1709720484.163,-42.969,-70.312,-40.039,-48.828,0.000
1709720484.167,-69.824,-73.730,-38.574,-83.496,0.000
1709720484.171,-81.055,-66.895,-38.086,-113.281,0.000
1709720484.175,-58.105,-60.547,-29.297,-89.355,0.000
1709720484.179,-28.320,-58.594,-15.625,-45.898,0.000
1709720484.183,-42.480,-65.918,-32.715,-45.898,0.000
1709720484.186,-72.754,-59.570,-39.551,-73.242,0.000
1709720484.190,-76.660,-44.434,-20.508,-83.984,0.000
1709720484.194,-65.430,-50.293,-20.508,-83.008,0.000
1709720484.198,-68.359,-75.684,-37.109,-84.961,0.000
1709720484.202,-57.129,-77.148,-35.156,-69.824,0.000
1709720484.206,-36.621,-52.734,-24.414,-54.688,0.000
1709720484.210,-49.316,-60.059,-27.832,-72.754,0.000
1709720484.214,-69.336,-75.195,-36.133,-101.562,0.000
1709720484.218,-59.082,-61.523,-36.621,-92.285,0.000
1709720484.222,-42.480,-53.711,-34.668,-61.035,0.000
1709720484.226,-44.922,-58.594,-33.691,-64.941,0.000
1709720484.229,-67.383,-67.383,-34.668,-95.703,0.000
1709720484.233,-78.613,-70.312,-36.621,-100.586,0.000
1709720484.237,-38.086,-45.410,-25.391,-54.199,0.000
1709720484.241,-9.766,-35.645,-18.066,-18.555,0.000
1709720484.245,-67.871,-60.059,-46.875,-75.195,0.000
1709720484.249,-94.727,-61.035,-50.781,-103.027,0.000
1709720484.253,-84.473,-57.129,-41.016,-95.703,0.000
1709720484.257,-68.359,-62.012,-38.574,-89.844,0.000
1709720484.261,-57.129,-67.871,-32.227,-67.871,0.000
1709720484.265,-48.340,-60.059,-23.926,-51.758,0.000
1709720484.269,-57.129,-46.875,-21.484,-68.359,0.000
1709720484.272,-80.566,-50.293,-25.879,-96.680,0.000
1709720484.276,-73.242,-48.340,-36.621,-97.656,0.000
1709720484.280,-42.480,-44.434,-33.691,-61.035,0.000
1709720484.284,-21.484,-42.480,-19.531,-28.320,0.000
1709720484.288,-67.383,-60.059,-33.691,-81.055,0.000
1709720484.292,-95.215,-68.848,-47.852,-117.676,0.000
1709720484.296,-55.664,-50.781,-32.715,-76.172,0.000
1709720484.300,-33.691,-40.527,-20.996,-48.340,0.000
1709720484.304,-57.617,-50.781,-29.297,-66.406,0.000
1709720484.308,-74.707,-55.664,-33.691,-92.285,0.000
1709720484.312,-77.148,-51.758,-31.250,-100.586,0.000
1709720484.315,-71.777,-54.688,-28.320,-84.473,0.000
1709720484.319,-47.363,-55.664,-32.715,-58.105,0.000
1709720484.323,-44.434,-59.082,-36.621,-60.059,0.000
1709720484.327,-44.434,-56.152,-22.461,-58.105,0.000
1709720484.331,-40.527,-56.641,-14.160,-52.246,0.000
1709720484.335,-81.055,-74.707,-38.574,-104.492,0.000
1709720484.339,-68.848,-72.266,-41.016,-98.145,0.000
1709720484.343,-45.410,-59.570,-29.297,-59.570,0.000
1709720484.347,-68.359,-61.523,-35.156,-78.613,0.000
1709720484.351,-90.332,-70.312,-44.922,-113.281,0.000
1709720484.354,-80.078,-66.406,-45.410,-106.934,0.000
1709720484.358,-57.129,-56.152,-42.969,-77.637,0.000
1709720484.362,-55.176,-59.082,-42.969,-66.895,0.000
1709720484.366,-63.477,-67.871,-39.062,-74.707,0.000
1709720484.370,-72.754,-71.777,-37.109,-91.309,0.000
1709720484.374,-49.316,-63.477,-24.414,-73.242,0.000
1709720484.378,-55.664,-66.406,-36.621,-70.312,0.000
1709720484.382,-58.594,-72.754,-45.410,-62.500,0.000
1709720484.386,-49.805,-67.871,-26.855,-56.152,0.000
1709720484.390,-82.520,-58.594,-27.832,-93.262,0.000
1709720484.394,-95.215,-59.082,-35.156,-102.051,0.000
1709720484.397,-71.777,-62.500,-34.180,-76.660,0.000
1709720484.401,-41.992,-48.828,-30.762,-48.340,0.000
1709720484.405,-48.828,-48.828,-32.227,-57.129,0.000
1709720484.409,-77.148,-58.105,-38.086,-90.820,0.000
1709720484.413,-74.219,-53.223,-34.668,-95.703,0.000
1709720484.417,-35.645,-47.363,-25.391,-60.547,0.000
1709720484.421,-7.324,-43.457,-14.160,-18.555,0.000
1709720484.425,-58.594,-59.082,-32.715,-68.848,0.000
1709720484.429,-84.961,-69.824,-38.574,-107.422,0.000
1709720484.433,-64.453,-56.641,-31.738,-100.586,0.000
1709720484.436,-58.594,-49.805,-41.992,-93.262,0.000
1709720484.440,-45.898,-48.340,-42.969,-57.129,0.000
1709720484.444,-39.551,-50.781,-36.133,-46.387,0.000
1709720484.448,-68.359,-63.965,-32.715,-79.102,0.000
1709720484.452,-83.496,-64.453,-32.715,-103.516,0.000
1709720484.456,-65.430,-52.246,-30.273,-89.844,0.000
1709720484.460,-44.922,-51.270,-28.320,-54.199,0.000
1709720484.464,-28.320,-57.617,-20.508,-31.738,0.000
1709720484.468,-70.312,-71.777,-29.297,-79.102,0.000
1709720484.472,-106.445,-82.520,-45.898,-122.559,0.000
1709720484.475,-70.312,-62.988,-35.156,-79.590,0.000
1709720484.479,-39.062,-48.340,-34.180,-42.969,0.000
1709720484.483,-44.434,-57.617,-41.016,-52.734,0.000
1709720484.487,-71.289,-56.152,-40.039,-77.148,0.000
1709720484.491,-71.289,-47.363,-34.180,-75.195,0.000
1709720484.495,-55.664,-49.805,-24.902,-58.105,0.000
1709720484.499,-49.316,-52.734,-26.367,-48.340,0.000
1709720484.503,-43.945,-54.688,-36.621,-45.898,0.000
1709720484.507,-32.715,-51.758,-24.902,-45.898,0.000
1709720484.511,-49.805,-55.664,-21.973,-68.848,0.000
1709720484.514,-80.078,-64.941,-36.133,-102.539,0.000
1709720484.518,-68.359,-58.594,-37.598,-91.797,0.000
1709720484.522,-14.648,-42.480,-22.949,-44.434,0.000
1709720484.526,-31.738,-52.734,-24.902,-58.594,0.000
1709720484.530,-95.215,-73.730,-45.898,-123.047,0.000
1709720484.534,-77.148,-63.477,-43.457,-106.445,0.000
1709720484.538,-45.898,-54.199,-38.086,-70.801,0.000
1709720484.542,-38.086,-54.199,-39.062,-62.988,0.000
1709720484.546,-62.012,-63.965,-42.480,-75.195,0.000
1709720484.550,-81.055,-65.918,-40.039,-85.938,0.000
1709720484.554,-70.801,-58.594,-34.668,-74.707,0.000
1709720484.557,-57.617,-59.082,-25.879,-55.664,0.000
1709720484.561,-59.082,-59.082,-40.039,-59.570,0.000
1709720484.565,-73.730,-60.059,-47.852,-70.801,0.000
1709720484.569,-72.754,-57.129,-24.902,-72.754,0.000
1709720484.573,-86.426,-62.988,-27.832,-103.516,0.000
1709720484.577,-84.473,-68.848,-43.945,-104.492,0.000
1709720484.581,-48.340,-57.617,-40.039,-60.059,0.000
1709720484.585,-46.387,-50.781,-29.785,-54.688,0.000
1709720484.589,-76.660,-65.918,-35.645,-90.820,0.000
1709720484.593,-80.078,-71.289,-33.691,-99.609,0.000
1709720484.597,-52.246,-53.711,-23.438,-66.406,0.000
1709720484.600,-30.273,-54.199,-26.855,-37.598,0.000
1709720484.604,-42.480,-61.523,-35.156,-51.758,0.000
1709720484.608,-71.289,-60.547,-43.457,-84.473,0.000
1709720484.612,-62.500,-47.852,-32.227,-75.684,0.000
1709720484.616,-36.621,-46.387,-24.902,-45.410,0.000
1709720484.620,-68.359,-73.242,-47.363,-70.801,0.000
1709720484.624,-65.918,-67.871,-43.457,-75.195,0.000
1709720484.628,-65.918,-61.035,-30.273,-81.543,0.000
1709720484.632,-91.797,-65.918,-32.715,-104.980,0.000
1709720484.636,-81.543,-62.012,-38.086,-94.727,0.000
1709720484.640,-49.805,-47.363,-31.250,-56.641,0.000
1709720484.643,-41.992,-44.434,-26.855,-39.551,0.000
1709720484.647,-61.523,-57.617,-32.227,-65.918,0.000
1709720484.651,-83.008,-67.871,-40.039,-100.098,0.000
1709720484.655,-73.730,-59.082,-41.504,-98.633,0.000
1709720484.659,-34.180,-43.457,-21.973,-51.758,0.000
1709720484.663,-54.688,-51.758,-30.273,-62.500,0.000
1709720484.667,-85.449,-48.828,-40.527,-90.332,0.000
1709720484.671,-78.125,-46.387,-30.762,-86.426,0.000
1709720484.675,-79.102,-53.711,-39.062,-85.938,0.000
1709720484.679,-75.195,-66.895,-53.223,-83.984,0.000
1709720484.683,-55.664,-69.824,-39.062,-64.453,0.000
1709720484.686,-49.316,-49.316,-24.414,-59.082,0.000
1709720484.690,-68.848,-48.828,-26.855,-91.797,0.000
1709720484.694,-69.824,-55.176,-28.320,-97.168,0.000
1709720484.698,-59.570,-56.641,-33.203,-75.195,0.000
1709720484.702,-34.668,-51.758,-28.809,-40.527,0.000
1709720484.706,-32.715,-53.711,-23.438,-30.762,0.000
1709720484.710,-95.215,-81.055,-46.387,-101.562,0.000
1709720484.714,-98.145,-80.566,-51.758,-110.352,0.000
1709720484.718,-67.383,-75.684,-40.527,-69.824,0.000
1709720484.722,-55.176,-73.730,-34.668,-58.105,0.000
1709720484.726,-56.152,-68.848,-36.621,-64.941,0.000
1709720484.729,-69.336,-68.848,-40.039,-78.613,0.000
1709720484.733,-80.566,-70.312,-50.781,-97.168,0.000
1709720484.737,-71.777,-63.965,-53.223,-83.984,0.000
1709720484.741,-51.270,-61.035,-44.922,-45.898,0.000
1709720484.745,-48.340,-61.523,-42.480,-48.340,0.000
1709720484.749,-49.316,-50.293,-30.273,-59.570,0.000
1709720484.753,-84.473,-70.312,-41.992,-95.703,0.000
1709720484.757,-90.332,-83.984,-49.316,-108.398,0.000
1709720484.761,-52.734,-69.336,-40.039,-62.500,0.000
1709720484.764,-56.641,-66.895,-35.645,-56.641,0.000
1709720484.768,-82.031,-67.871,-38.574,-87.891,0.000
1709720484.772,-82.031,-64.941,-42.480,-98.145,0.000
1709720484.776,-58.105,-62.012,-38.086,-77.637,0.000
1709720484.780,-40.527,-55.664,-42.480,-56.152,0.000
1709720484.784,-42.480,-57.617,-43.945,-50.781,0.000
1709720484.788,-63.477,-69.336,-37.598,-69.824,0.000
1709720484.792,-57.617,-56.641,-31.738,-69.336,0.000
1709720484.796,-39.062,-45.898,-22.461,-41.016,0.000
1709720484.800,-65.918,-68.848,-35.645,-62.500,0.000
1709720484.804,-69.824,-73.730,-45.898,-80.078,0.000
1709720484.807,-68.359,-64.941,-41.992,-76.660,0.000
1709720484.811,-92.773,-60.059,-40.527,-95.703,0.000
1709720484.815,-94.727,-60.059,-45.410,-101.074,0.000
1709720484.819,-59.570,-60.547,-38.086,-63.477,0.000
1709720484.823,-44.922,-62.500,-36.133,-49.316,0.000
1709720484.827,-66.895,-61.523,-44.434,-78.613,0.000
1709720484.831,-80.566,-58.594,-41.016,-95.215,0.000
1709720484.835,-65.918,-60.547,-35.645,-83.496,0.000
1709720484.839,-27.832,-55.664,-23.438,-40.527,0.000
1709720484.843,-50.781,-66.895,-30.273,-45.898,0.000
1709720484.847,-89.844,-71.289,-41.016,-92.285,0.000
1709720484.850,-82.031,-62.012,-45.410,-102.051,0.000
1709720484.854,-79.590,-59.082,-46.387,-106.445,0.000
1709720484.858,-62.988,-56.152,-39.551,-93.262,0.000
1709720484.862,-50.293,-54.199,-43.457,-70.801,0.000
1709720484.866,-61.523,-43.945,-44.434,-68.848,0.000
1709720484.870,-76.660,-41.504,-38.086,-86.426,0.000
1709720484.874,-81.543,-63.477,-42.480,-98.145,0.000
1709720484.878,-61.035,-71.289,-44.922,-80.566,0.000
1709720484.882,-22.461,-45.410,-23.438,-35.645,0.000
1709720484.886,-27.344,-34.668,-23.438,-29.785,0.000
1709720484.889,-79.102,-52.246,-41.992,-89.844,0.000
1709720484.893,-95.215,-63.965,-52.246,-113.281,0.000
1709720484.897,-44.922,-47.852,-37.598,-61.523,0.000
1709720484.901,-20.508,-37.109,-20.508,-32.715,0.000
1709720484.905,-79.590,-57.129,-41.504,-83.008,0.000
1709720484.909,-93.750,-56.641,-46.875,-103.027,0.000
1709720484.913,-81.055,-56.152,-42.480,-92.773,0.000
1709720484.917,-70.312,-59.570,-39.551,-78.613,0.000
1709720484.921,-51.270,-64.941,-37.598,-66.406,0.000
1709720484.925,-55.664,-62.500,-40.527,-61.035,0.000
1709720484.929,-69.824,-47.852,-40.039,-67.383,0.000
1709720484.932,-85.449,-50.781,-45.410,-93.750,0.000
1709720484.936,-87.891,-57.129,-41.992,-99.121,0.000
1709720484.940,-47.363,-48.828,-27.832,-55.664,0.000
1709720484.944,-28.809,-45.410,-19.531,-37.109,0.000
1709720484.948,-73.730,-52.734,-37.598,-87.402,0.000
1709720484.952,-83.496,-55.664,-50.293,-106.934,0.000
1709720484.956,-51.270,-52.734,-34.668,-68.359,0.000
1709720484.960,-51.270,-51.270,-31.250,-55.176,0.000
1709720484.964,-64.453,-55.176,-40.527,-70.312,0.000
1709720484.968,-84.961,-66.406,-44.922,-94.238,0.000
1709720484.972,-85.938,-61.523,-36.621,-97.656,0.000
1709720484.975,-62.500,-50.293,-33.203,-76.660,0.000
1709720484.979,-49.316,-52.246,-30.273,-62.988,0.000
1709720484.983,-52.246,-57.617,-31.738,-62.988,0.000
1709720484.987,-46.875,-51.270,-25.391,-60.059,0.000
1709720484.991,-44.434,-39.062,-14.648,-56.152,0.000
1709720484.995,-88.379,-61.523,-37.598,-103.027,0.000
1709720484.999,-79.590,-68.359,-45.898,-96.191,0.000
1709720485.003,-50.293,-55.176,-46.875,-67.383,0.000
1709720485.007,-65.918,-55.176,-48.340,-87.402,0.000
1709720485.011,-83.496,-62.012,-40.527,-108.887,0.000
1709720485.015,-76.172,-60.547,-37.109,-99.121,0.000
1709720485.018,-59.570,-52.246,-32.227,-67.383,0.000
1709720485.022,-48.340,-51.758,-27.344,-48.340,0.000
1709720485.026,-62.012,-53.223,-40.039,-69.336,0.000
1709720485.030,-76.660,-59.082,-41.504,-97.168,0.000
1709720485.034,-49.316,-48.828,-25.879,-69.336,0.000
1709720485.038,-54.199,-56.152,-44.922,-64.941,0.000
1709720485.042,-66.895,-66.895,-51.270,-69.824,0.000
1709720485.046,-55.176,-51.270,-37.109,-57.617,0.000
1709720485.050,-72.266,-45.410,-37.109,-73.730,0.000
1709720485.054,-82.031,-60.059,-37.109,-90.332,0.000
1709720485.058,-60.059,-61.523,-34.668,-68.359,0.000
1709720485.061,-33.691,-53.223,-31.250,-43.945,0.000
1709720485.065,-42.969,-58.105,-38.086,-60.059,0.000
1709720485.069,-74.707,-56.641,-45.898,-84.473,0.000
1709720485.073,-88.379,-56.641,-48.828,-98.145,0.000
1709720485.077,-45.898,-52.734,-35.156,-56.641,0.000
1709720485.081,-18.066,-41.016,-18.555,-10.254,0.000
1709720485.085,-77.148,-63.477,-41.016,-69.824,0.000
1709720485.089,-88.379,-77.148,-43.945,-99.121,0.000
1709720485.093,-69.824,-62.988,-32.227,-95.703,0.000
1709720485.097,-68.359,-61.523,-43.457,-95.703,0.000
1709720485.100,-57.129,-77.148,-47.852,-71.777,0.000
1709720485.104,-48.340,-71.777,-30.762,-54.199,0.000
1709720485.108,-65.430,-57.617,-34.180,-74.219,0.000
1709720485.112,-88.379,-67.383,-51.758,-99.121,0.000
1709720485.116,-62.012,-62.988,-41.992,-74.219,0.000
1709720485.120,-31.738,-50.293,-33.203,-45.410,0.000
1709720485.124,-26.367,-41.504,-25.391,-27.832,0.000
1709720485.128,-66.406,-63.477,-37.598,-70.801,0.000
1709720485.132,-96.191,-87.891,-56.641,-114.258,0.000
1709720485.136,-71.289,-72.266,-47.363,-82.520,0.000
1709720485.139,-49.805,-65.430,-43.945,-51.758,0.000
1709720485.143,-60.059,-69.824,-49.805,-60.547,0.000
1709720485.147,-80.078,-73.242,-48.340,-86.914,0.000
1709720485.151,-67.871,-63.477,-41.992,-83.984,0.000
1709720485.155,-51.758,-52.246,-34.180,-64.453,0.000
1709720485.159,-47.363,-52.734,-37.598,-58.105,0.000
1709720485.163,-38.574,-50.781,-37.598,-55.664,0.000
1709720485.167,-25.391,-49.316,-27.832,-48.340,0.000
1709720485.171,-43.457,-59.082,-23.926,-59.082,0.000
1709720485.175,-94.727,-77.637,-45.410,-106.934,0.000
1709720485.179,-73.242,-72.754,-47.852,-88.867,0.000
1709720485.182,-41.992,-60.059,-34.180,-59.570,0.000
1709720485.186,-66.406,-66.406,-36.133,-83.984,0.000
1709720485.190,-95.215,-74.707,-41.504,-109.863,0.000
1709720485.194,-84.473,-67.383,-36.133,-102.539,0.000
1709720485.198,-61.035,-62.988,-44.434,-74.707,0.000
1709720485.202,-59.082,-71.289,-53.223,-66.895,0.000
1709720485.206,-58.105,-64.941,-30.762,-74.707,0.000
1709720485.210,-60.547,-64.453,-21.973,-84.473,0.000
1709720485.214,-52.734,-61.035,-19.531,-72.266,0.000
1709720485.218,-59.082,-66.406,-28.809,-74.707,0.000
1709720485.221,-69.336,-72.266,-43.457,-82.520,0.000
1709720485.225,-54.199,-57.129,-32.227,-64.941,0.000
1709720485.229,-67.383,-55.664,-31.738,-84.473,0.000
1709720485.233,-88.867,-65.918,-39.062,-115.234,0.000
1709720485.237,-61.523,-62.012,-32.715,-83.984,0.000
1709720485.241,-36.621,-53.711,-27.832,-47.852,0.000
1709720485.245,-52.734,-63.477,-29.785,-65.918,0.000
1709720485.249,-83.008,-72.754,-39.551,-109.863,0.000
1709720485.253,-81.543,-62.500,-38.574,-104.980,0.000
1709720485.257,-41.504,-47.363,-26.367,-47.852,0.000
1709720485.260,-37.598,-53.711,-34.668,-35.645,0.000
1709720485.264,-60.059,-57.129,-31.250,-62.012,0.000
1709720485.268,-76.172,-57.617,-21.973,-98.633,0.000
1709720485.272,-57.129,-49.805,-13.184,-86.914,0.000
1709720485.276,-41.992,-45.898,-18.066,-67.383,0.000
1709720485.280,-57.129,-64.941,-38.574,-84.961,0.000
1709720485.284,-43.945,-60.059,-32.227,-64.941,0.000
1709720485.288,-57.617,-57.129,-31.738,-76.172,0.000
1709720485.292,-79.590,-52.734,-37.109,-106.445,0.000
1709720485.296,-63.477,-50.781,-38.574,-93.262,0.000
1709720485.300,-38.086,-50.781,-35.645,-58.105,0.000
1709720485.304,-37.598,-51.758,-33.691,-46.875,0.000
1709720485.307,-66.895,-75.195,-35.645,-80.078,0.000
1709720485.311,-96.680,-87.402,-40.039,-113.770,0.000
1709720485.315,-81.543,-70.801,-37.109,-92.285,0.000
1709720485.319,-53.711,-58.105,-28.320,-53.223,0.000
1709720485.323,-62.988,-66.895,-39.062,-60.059,0.000
1709720485.327,-79.590,-70.312,-41.504,-94.238,0.000
1709720485.331,-87.891,-63.965,-31.250,-104.004,0.000
1709720485.335,-76.172,-62.988,-30.762,-86.914,0.000
1709720485.339,-64.453,-63.965,-32.227,-77.148,0.000
1709720485.343,-55.176,-59.082,-25.391,-67.383,0.000
1709720485.346,-44.922,-55.664,-17.578,-63.477,0.000
1709720485.350,-58.594,-59.570,-20.020,-79.102,0.000
1709720485.354,-58.594,-58.594,-21.484,-88.379,0.000
1709720485.358,-36.621,-59.082,-22.949,-60.547,0.000
1709720485.362,-22.461,-57.617,-20.508,-30.273,0.000
1709720485.366,-28.809,-55.664,-17.090,-31.250,0.000
1709720485.370,-91.309,-74.707,-35.156,-94.238,0.000
1709720485.374,-101.074,-74.707,-32.715,-106.934,0.000
1709720485.378,-62.500,-58.105,-23.438,-72.266,0.000
1709720485.382,-51.270,-64.941,-31.250,-58.594,0.000
1709720485.386,-54.688,-72.266,-35.645,-63.477,0.000
1709720485.389,-61.035,-68.359,-32.227,-78.125,0.000
1709720485.393,-62.012,-65.918,-30.762,-83.984,0.000
1709720485.397,-54.199,-60.547,-28.320,-71.289,0.000
1709720485.401,-53.223,-70.801,-34.180,-62.988,0.000
1709720485.405,-56.641,-76.172,-45.898,-65.918,0.000
1709720485.409,-45.898,-55.176,-34.668,-59.570,0.000
1709720485.413,-78.613,-59.082,-37.109,-96.191,0.000
1709720485.417,-84.473,-70.312,-41.016,-107.422,0.000
1709720485.421,-45.898,-60.059,-35.645,-62.988,0.000
1709720485.425,-49.316,-56.152,-39.551,-54.688,0.000
1709720485.429,-89.844,-73.242,-45.898,-98.633,0.000
1709720485.432,-99.121,-78.125,-43.945,-115.234,0.000
1709720485.436,-70.801,-62.988,-33.203,-79.590,0.000
1709720485.440,-52.734,-57.129,-32.715,-53.223,0.000
1709720485.444,-58.105,-59.570,-39.062,-63.965,0.000
1709720485.448,-80.566,-61.035,-37.598,-89.844,0.000
1709720485.452,-73.730,-55.176,-19.531,-79.102,0.000
1709720485.456,-48.340,-46.387,-12.207,-51.758,0.000
1709720485.460,-74.219,-62.012,-38.574,-78.613,0.000
1709720485.464,-80.566,-72.754,-48.340,-88.379,0.000
1709720485.468,-66.406,-60.547,-38.574,-86.914,0.000
1709720485.472,-81.543,-58.105,-38.574,-113.770,0.000
1709720485.475,-85.449,-54.688,-36.621,-111.328,0.000
1709720485.479,-61.035,-41.992,-28.809,-79.590,0.000
1709720485.483,-53.711,-52.246,-36.133,-70.801,0.000
1709720485.487,-71.289,-59.082,-42.480,-88.867,0.000
1709720485.491,-75.195,-55.664,-31.250,-96.680,0.000
1709720485.495,-70.801,-62.988,-29.297,-93.750,0.000
1709720485.499,-41.992,-50.293,-26.855,-53.711,0.000
1709720485.503,-53.223,-48.340,-38.086,-60.059,0.000
1709720485.507,-91.797,-63.965,-45.898,-101.562,0.000
1709720485.510,-86.426,-65.430,-39.062,-100.586,0.000
1709720485.514,-72.266,-67.383,-38.086,-97.168,0.000
1709720485.518,-62.988,-65.430,-40.039,-87.891,0.000
1709720485.522,-43.945,-58.594,-37.598,-63.965,0.000
1709720485.526,-46.387,-55.176,-33.691,-63.965,0.000
1709720485.530,-79.590,-58.105,-41.016,-98.145,0.000
1709720485.534,-87.402,-62.500,-42.969,-110.352,0.000
1709720485.538,-60.547,-55.664,-34.668,-80.566,0.000
1709720485.542,-29.297,-44.922,-30.762,-42.480,0.000
1709720485.546,-33.691,-46.875,-29.785,-51.758,0.000
1709720485.550,-90.332,-69.824,-44.922,-115.234,0.000
1709720485.554,-106.934,-69.824,-50.293,-127.930,0.000
1709720485.557,-45.898,-44.922,-31.738,-66.406,0.000
1709720485.561,-29.297,-46.875,-28.320,-46.387,0.000
1709720485.565,-67.871,-64.453,-42.480,-85.938,0.000
1709720485.569,-72.754,-58.594,-33.691,-92.773,0.000
1709720485.573,-83.496,-59.082,-27.344,-90.820,0.000
1709720485.577,-86.426,-64.941,-34.180,-87.402,0.000
1709720485.581,-63.477,-61.523,-29.297,-61.523,0.000
1709720485.585,-54.688,-53.223,-24.902,-50.293,0.000
1709720485.589,-75.195,-48.340,-29.297,-76.172,0.000
1709720485.593,-98.633,-56.641,-38.086,-100.586,0.000
1709720485.596,-87.402,-66.895,-41.992,-89.844,0.000
1709720485.600,-48.828,-57.617,-32.227,-50.781,0.000
1709720485.604,-32.715,-39.062,-26.367,-33.203,0.000
1709720485.608,-81.055,-54.688,-42.480,-93.750,0.000
1709720485.612,-94.727,-62.012,-44.434,-123.047,0.000
1709720485.616,-58.105,-53.711,-30.762,-88.867,0.000
1709720485.620,-37.109,-57.129,-31.738,-61.035,0.000
1709720485.624,-52.734,-58.105,-38.086,-71.289,0.000
1709720485.628,-76.660,-61.035,-44.434,-95.703,0.000
1709720485.632,-64.941,-56.152,-29.297,-77.637,0.000
1709720485.636,-57.617,-49.316,-23.438,-64.941,0.000
1709720485.639,-69.336,-59.570,-43.945,-74.707,0.000
1709720485.643,-63.477,-61.523,-40.039,-65.918,0.000
1709720485.647,-53.711,-52.246,-26.855,-55.176,0.000
1709720485.651,-72.754,-48.828,-32.227,-76.660,0.000
1709720485.655,-98.145,-57.617,-46.875,-107.910,0.000
1709720485.659,-62.012,-61.035,-41.016,-72.266,0.000
1709720485.663,-43.457,-57.129,-29.297,-54.688,0.000
1709720485.667,-70.312,-59.082,-38.574,-79.102,0.000
1709720485.671,-89.844,-70.801,-46.387,-95.703,0.000
1709720485.675,-67.871,-67.383,-37.109,-88.379,0.000
1709720485.679,-37.598,-59.570,-30.273,-53.223,0.000
1709720485.682,-52.734,-67.383,-38.574,-52.246,0.000
1709720485.686,-76.172,-68.359,-57.129,-83.984,0.000
1709720485.690,-74.219,-63.477,-57.129,-100.586,0.000
1709720485.694,-59.570,-58.594,-41.992,-77.148,0.000
1709720485.698,-60.059,-70.801,-47.852,-70.801,0.000
1709720485.702,-51.270,-72.754,-47.363,-76.172,0.000
1709720485.706,-44.434,-48.828,-32.715,-65.918,0.000
1709720485.710,-70.801,-52.734,-32.715,-78.125,0.000
1709720485.714,-83.496,-62.012,-35.156,-87.891,0.000
1709720485.718,-68.359,-61.523,-34.180,-72.266,0.000
1709720485.722,-36.621,-48.340,-31.250,-40.039,0.000
1709720485.725,-36.621,-36.621,-26.367,-41.992,0.000
1709720485.729,-71.777,-57.617,-34.180,-75.195,0.000
1709720485.733,-78.125,-71.289,-42.480,-92.773,0.000
1709720485.737,-40.527,-51.270,-32.227,-57.617,0.000
1709720485.741,-15.137,-42.480,-23.926,-20.020,0.000
1709720485.745,-62.012,-67.383,-43.945,-67.871,0.000
1709720485.749,-88.379,-68.359,-51.758,-96.680,0.000
1709720485.753,-88.379,-64.941,-46.387,-99.609,0.000
1709720485.757,-83.984,-71.777,-46.875,-88.867,0.000
1709720485.761,-66.895,-63.477,-45.410,-67.871,0.000
1709720485.764,-67.871,-61.523,-52.246,-75.195,0.000
1709720485.768,-84.473,-75.684,-56.152,-89.355,0.000
1709720485.772,-81.055,-66.895,-41.992,-87.891,0.000
1709720485.776,-73.730,-56.152,-42.480,-86.914,0.000
1709720485.780,-62.012,-58.594,-48.340,-70.801,0.000
1709720485.784,-41.992,-50.293,-38.086,-37.109,0.000
1709720485.788,-88.379,-61.523,-46.387,-85.449,0.000
1709720485.792,-117.188,-72.754,-54.199,-126.953,0.000
1709720485.796,-83.008,-63.965,-47.852,-93.262,0.000
1709720485.800,-58.105,-58.105,-42.969,-55.176,0.000
1709720485.804,-62.012,-60.059,-45.898,-55.664,0.000
1709720485.807,-67.871,-54.688,-49.316,-80.566,0.000
1709720485.811,-71.289,-58.105,-45.410,-95.215,0.000
1709720485.815,-72.266,-54.688,-40.039,-87.891,0.000
1709720485.819,-50.293,-38.086,-37.109,-55.176,0.000
1709720485.823,-46.875,-46.387,-43.457,-43.945,0.000
1709720485.827,-40.527,-51.270,-37.109,-48.340,0.000
1709720485.831,-46.387,-52.246,-27.832,-60.547,0.000
1709720485.835,-94.727,-76.172,-48.340,-106.445,0.000
1709720485.839,-77.637,-79.102,-49.805,-95.703,0.000
1709720485.843,-47.852,-63.965,-40.039,-64.453,0.000
1709720485.847,-67.383,-64.941,-43.945,-79.102,0.000
1709720485.850,-84.961,-67.871,-52.734,-101.074,0.000
1709720485.854,-73.242,-66.406,-44.922,-91.309,0.000
1709720485.858,-58.105,-69.824,-33.203,-68.359,0.000
1709720485.862,-56.641,-68.848,-35.645,-59.082,0.000
1709720485.866,-60.059,-65.918,-39.062,-71.289,0.000
1709720485.870,-78.125,-65.430,-38.574,-89.844,0.000
1709720485.874,-64.941,-58.105,-26.367,-68.848,0.000
1709720485.878,-65.918,-60.547,-32.715,-70.312,0.000
1709720485.882,-79.102,-65.430,-37.598,-71.777,0.000
1709720485.886,-63.965,-55.176,-27.832,-55.176,0.000
1709720485.889,-71.777,-58.105,-30.762,-80.566,0.000
1709720485.893,-86.914,-65.918,-38.086,-99.609,0.000
1709720485.897,-62.500,-58.105,-39.062,-72.754,0.000
1709720485.901,-27.832,-51.270,-31.250,-29.785,0.000
1709720485.905,-39.551,-58.594,-32.715,-40.527,0.000
1709720485.909,-72.754,-62.500,-32.715,-80.078,0.000
1709720485.913,-73.242,-55.664,-24.902,-82.520,0.000
1709720485.917,-41.016,-53.711,-21.484,-48.340,0.000
1709720485.921,-6.348,-43.945,-16.113,-2.930,0.000
1709720485.925,-60.059,-57.617,-36.621,-51.270,0.000
1709720485.928,-98.145,-64.941,-42.480,-104.980,0.000
1709720485.932,-83.008,-49.805,-30.273,-98.633,0.000
1709720485.936,-74.219,-48.828,-29.785,-83.496,0.000
1709720485.940,-62.988,-50.781,-30.762,-70.312,0.000
1709720485.944,-50.781,-46.875,-31.250,-64.453,0.000
1709720485.948,-58.105,-43.457,-28.809,-72.754,0.000
1709720485.952,-79.102,-50.781,-34.668,-99.121,0.000
1709720485.956,-61.035,-48.340,-32.227,-85.938,0.000
1709720485.960,-28.320,-35.645,-31.738,-46.387,0.000
1709720485.964,-17.578,-39.062,-31.738,-18.555,0.000
1709720485.968,-59.570,-57.617,-37.109,-63.477,0.000
1709720485.971,-99.121,-58.105,-48.340,-118.652,0.000
1709720485.975,-76.172,-48.828,-38.086,-101.562,0.000
1709720485.979,-43.945,-45.410,-31.250,-67.383,0.000
1709720485.983,-50.293,-44.922,-40.039,-65.430,0.000
1709720485.987,-71.777,-51.270,-44.434,-95.703,0.000
1709720485.991,-67.383,-41.504,-38.086,-101.074,0.000
1709720485.995,-59.570,-36.133,-36.133,-84.473,0.000
1709720485.999,-53.711,-45.898,-41.016,-62.500,0.000
1709720486.003,-42.480,-46.875,-46.387,-52.246,0.000
1709720486.007,-33.203,-39.062,-35.645,-48.828,0.000
1709720486.010,-47.363,-38.574,-19.531,-57.129,0.000
1709720486.014,-72.266,-48.340,-29.297,-84.961,0.000
1709720486.018,-74.219,-57.129,-46.387,-83.496,0.000
1709720486.022,-33.691,-47.852,-24.414,-28.809,0.000
1709720486.026,-43.945,-52.734,-17.578,-28.320,0.000
1709720486.030,-104.492,-71.777,-51.758,-112.793,0.000
1709720486.034,-85.938,-53.223,-47.852,-104.492,0.000
1709720486.038,-46.387,-38.574,-32.227,-57.617,0.000
1709720486.042,-41.016,-41.504,-35.156,-58.594,0.000
1709720486.046,-57.129,-45.898,-34.180,-76.660,0.000
1709720486.050,-72.754,-40.527,-28.320,-80.566,0.000
1709720486.053,-65.918,-44.434,-27.344,-75.684,0.000
1709720486.057,-57.617,-57.617,-33.691,-73.242,0.000
1709720486.061,-57.617,-59.570,-38.574,-63.477,0.000
1709720486.065,-42.480,-52.246,-30.273,-44.922,0.000
1709720486.069,-45.898,-43.457,-25.879,-51.270,0.000
1709720486.073,-77.637,-51.270,-42.480,-88.867,0.000
1709720486.077,-72.754,-54.199,-51.758,-83.496,0.000
1709720486.081,-40.527,-42.480,-43.945,-47.363,0.000
1709720486.085,-53.711,-45.410,-42.480,-59.570,0.000
1709720486.089,-88.867,-62.012,-47.363,-99.121,0.000
1709720486.093,-75.684,-59.082,-44.434,-90.332,0.000
1709720486.096,-49.805,-53.711,-38.574,-61.035,0.000
1709720486.100,-41.504,-56.152,-39.062,-49.805,0.000
1709720486.104,-47.363,-51.758,-42.969,-59.570,0.000
1709720486.108,-74.707,-55.176,-49.316,-89.844,0.000
1709720486.112,-69.824,-56.641,-41.992,-83.496,0.000
1709720486.116,-41.504,-48.340,-28.809,-53.711,0.000
1709720486.120,-70.312,-62.500,-46.875,-83.008,0.000
1709720486.124,-91.309,-69.824,-46.875,-85.449,0.000
1709720486.128,-91.797,-64.941,-38.086,-87.891,0.000
1709720486.132,-98.633,-76.660,-41.504,-110.352,0.000
1709720486.136,-94.238,-75.195,-41.504,-100.586,0.000
1709720486.139,-70.801,-63.477,-40.527,-75.195,0.000
1709720486.143,-54.199,-59.570,-35.645,-63.477,0.000
1709720486.147,-61.523,-62.012,-36.133,-80.078,0.000
1709720486.151,-79.590,-62.012,-47.363,-98.145,0.000
1709720486.155,-73.730,-48.828,-41.504,-89.844,0.000
1709720486.159,-34.180,-39.062,-21.973,-44.922,0.000
1709720486.163,-50.293,-56.152,-30.762,-51.758,0.000
1709720486.167,-83.496,-66.895,-42.480,-92.285,0.000
1709720486.171,-77.148,-53.711,-34.180,-91.797,0.000
1709720486.175,-75.195,-53.223,-34.668,-90.820,0.000
1709720486.179,-73.730,-65.918,-41.504,-84.473,0.000
1709720486.182,-62.500,-65.918,-43.945,-63.965,0.000
1709720486.186,-56.152,-55.664,-40.039,-66.895,0.000
1709720486.190,-64.941,-48.828,-38.574,-88.867,0.000
1709720486.194,-57.617,-55.176,-36.621,-79.590,0.000
1709720486.198,-44.922,-57.617,-32.227,-56.152,0.000
1709720486.202,-24.414,-50.293,-24.414,-31.738,0.000
1709720486.206,-21.484,-48.340,-16.602,-21.973,0.000
1709720486.210,-93.750,-63.477,-41.504,-91.797,0.000
1709720486.214,-105.957,-70.312,-42.969,-115.723,0.000
1709720486.217,-61.523,-61.035,-29.785,-73.242,0.000
1709720486.221,-49.316,-58.594,-40.527,-64.453,0.000
1709720486.225,-61.035,-64.453,-45.898,-80.566,0.000
1709720486.229,-79.590,-64.453,-32.715,-96.191,0.000
1709720486.233,-81.543,-64.453,-31.738,-104.492,0.000
1709720486.237,-62.988,-64.941,-35.156,-91.797,0.000
1709720486.241,-45.410,-53.711,-24.902,-62.988,0.000
1709720486.245,-51.270,-49.316,-23.438,-61.523,0.000
1709720486.249,-62.988,-52.246,-20.020,-75.684,0.000
1709720486.253,-96.680,-64.453,-29.297,-115.234,0.000
1709720486.257,-92.773,-62.500,-39.062,-120.605,0.000
1709720486.260,-50.781,-58.105,-30.762,-67.383,0.000
1709720486.264,-47.363,-62.500,-33.203,-64.453,0.000
1709720486.268,-70.801,-61.523,-36.133,-98.145,0.000
1709720486.272,-89.844,-57.129,-37.109,-107.422,0.000
1709720486.276,-66.406,-48.340,-31.738,-74.707,0.000
1709720486.280,-39.062,-51.758,-30.762,-46.875,0.000
1709720486.284,-54.688,-58.105,-43.945,-61.035,0.000
1709720486.288,-75.195,-52.246,-50.293,-76.660,0.000
1709720486.292,-65.918,-44.922,-34.180,-66.406,0.000
1709720486.296,-34.180,-42.480,-13.672,-42.969,0.000
1709720486.300,-63.477,-67.871,-33.691,-75.684,0.000
1709720486.303,-75.684,-74.707,-43.945,-82.520,0.000
1709720486.307,-66.406,-55.664,-34.180,-76.172,0.000
1709720486.311,-85.449,-54.688,-39.062,-106.445,0.000
1709720486.315,-78.125,-56.641,-37.598,-98.145,0.000
1709720486.319,-47.363,-47.363,-29.785,-60.059,0.000
1709720486.323,-27.832,-40.039,-23.438,-39.551,0.000
1709720486.327,-58.594,-57.129,-29.785,-70.312,0.000
1709720486.331,-78.125,-64.453,-35.156,-103.027,0.000
1709720486.335,-62.012,-52.246,-24.414,-76.660,0.000
1709720486.339,-34.180,-38.574,-10.742,-27.344,0.000
1709720486.342,-47.852,-48.340,-22.461,-40.039,0.000
1709720486.346,-83.496,-64.941,-39.062,-80.078,0.000
1709720486.350,-83.496,-52.734,-35.156,-87.891,0.000
1709720486.354,-80.566,-50.293,-42.969,-92.285,0.000
1709720486.358,-61.035,-58.594,-41.016,-77.148,0.000
1709720486.362,-53.223,-48.828,-32.227,-58.594,0.000
1709720486.366,-54.688,-40.039,-25.391,-72.754,0.000
1709720486.370,-61.523,-45.410,-24.414,-97.656,0.000
1709720486.374,-83.008,-55.176,-30.762,-103.516,0.000
1709720486.378,-58.594,-48.828,-25.391,-72.266,0.000
1709720486.382,-21.484,-39.062,-19.043,-38.574,0.000
1709720486.385,-39.551,-39.551,-25.879,-55.176,0.000
1709720486.389,-72.754,-46.875,-37.109,-97.656,0.000
1709720486.393,-73.730,-53.223,-38.086,-109.863,0.000
1709720486.397,-34.668,-40.039,-26.855,-66.406,0.000
1709720486.401,-19.043,-41.016,-25.391,-34.180,0.000
1709720486.405,-65.918,-64.453,-43.945,-83.496,0.000
1709720486.409,-85.449,-63.477,-42.480,-106.934,0.000
1709720486.413,-81.055,-64.453,-42.969,-97.656,0.000
1709720486.417,-61.523,-68.848,-39.551,-80.566,0.000
1709720486.421,-50.293,-65.430,-31.738,-59.570,0.000
1709720486.425,-45.898,-60.059,-33.203,-54.199,0.000
1709720486.428,-52.246,-51.270,-26.855,-69.824,0.000
1709720486.432,-73.242,-56.152,-24.414,-97.656,0.000
1709720486.436,-65.918,-59.570,-22.461,-85.938,0.000
1709720486.440,-39.062,-50.781,-21.973,-44.922,0.000
1709720486.444,-30.273,-50.293,-22.949,-33.203,0.000
1709720486.448,-62.500,-63.477,-30.762,-72.266,0.000
1709720486.452,-91.309,-76.660,-38.086,-113.281,0.000
1709720486.456,-74.707,-65.918,-34.668,-93.262,0.000
1709720486.460,-43.457,-53.223,-30.273,-56.641,0.000
1709720486.464,-43.457,-60.059,-31.738,-62.012,0.000
1709720486.468,-59.570,-62.988,-35.156,-87.402,0.000
1709720486.471,-63.965,-59.082,-28.320,-86.426,0.000
1709720486.475,-53.711,-49.805,-23.926,-75.684,0.000
1709720486.479,-39.551,-48.340,-30.762,-63.965,0.000
1709720486.483,-44.922,-56.641,-34.180,-62.500,0.000
1709720486.487,-48.340,-52.246,-28.320,-66.406,0.000
1709720486.491,-36.621,-45.410,-24.414,-57.129,0.000
1709720486.495,-77.637,-62.988,-45.410,-95.703,0.000
1709720486.499,-83.496,-71.289,-58.594,-98.633,0.000
1709720486.503,-68.359,-75.195,-52.246,-64.941,0.000
1709720486.507,-89.844,-79.102,-46.875,-82.520,0.000
1709720486.511,-98.633,-72.266,-43.457,-109.375,0.000
1709720486.514,-79.590,-58.105,-37.598,-101.074,0.000
1709720486.518,-44.922,-52.246,-30.762,-73.730,0.000
1709720486.522,-36.133,-61.523,-32.227,-53.223,0.000
1709720486.526,-63.477,-65.918,-46.875,-73.730,0.000
1709720486.530,-75.195,-56.641,-46.387,-97.656,0.000
1709720486.534,-53.223,-43.945,-25.391,-74.707,0.000
1709720486.538,-70.801,-51.758,-32.227,-83.008,0.000
1709720486.542,-79.102,-58.105,-41.504,-84.473,0.000
1709720486.546,-61.035,-54.199,-35.645,-63.477,0.000
1709720486.550,-67.383,-52.734,-31.250,-73.242,0.000
1709720486.554,-84.961,-54.199,-37.598,-96.680,0.000
1709720486.557,-73.242,-55.176,-40.527,-86.914,0.000
1709720486.561,-40.039,-45.898,-28.320,-48.340,0.000
1709720486.565,-41.504,-45.410,-29.297,-47.852,0.000
1709720486.569,-57.129,-51.758,-37.109,-75.195,0.000
1709720486.573,-69.336,-50.293,-32.715,-85.449,0.000
1709720486.577,-49.805,-42.969,-19.043,-55.664,0.000
1709720486.581,-18.066,-36.621,-18.066,-17.578,0.000
1709720486.585,-66.895,-57.129,-46.875,-70.801,0.000
1709720486.589,-92.285,-65.918,-49.316,-103.516,0.000
1709720486.592,-76.172,-54.688,-41.992,-89.355,0.000
1709720486.596,-78.613,-54.688,-49.316,-89.355,0.000
1709720486.600,-65.918,-53.711,-45.898,-71.289,0.000
1709720486.604,-49.805,-51.758,-39.551,-57.617,0.000
1709720486.608,-63.965,-59.570,-37.598,-76.660,0.000
1709720486.612,-83.496,-58.594,-39.062,-95.703,0.000
1709720486.616,-61.523,-48.828,-33.203,-74.707,0.000
1709720486.620,-43.945,-47.852,-32.715,-55.664,0.000
1709720486.624,-28.809,-38.574,-29.297,-39.062,0.000
1709720486.628,-59.570,-43.457,-33.203,-75.684,0.000
1709720486.632,-91.309,-53.223,-37.109,-114.746,0.000
1709720486.635,-56.641,-50.781,-22.949,-86.914,0.000
1709720486.639,-34.668,-57.617,-22.949,-62.012,0.000
1709720486.643,-53.223,-58.105,-34.180,-66.895,0.000
1709720486.647,-70.801,-49.805,-40.527,-83.008,0.000
1709720486.651,-71.289,-45.410,-36.133,-85.449,0.000
1709720486.655,-62.988,-48.828,-31.738,-78.613,0.000
1709720486.659,-49.805,-51.758,-32.715,-61.523,0.000
1709720486.663,-53.711,-54.688,-31.738,-47.852,0.000
1709720486.667,-61.035,-50.293,-26.855,-59.082,0.000
1709720486.671,-52.734,-42.969,-22.461,-64.453,0.000
1709720486.675,-88.867,-62.988,-48.828,-100.098,0.000
1709720486.678,-83.008,-67.871,-53.223,-96.680,0.000
1709720486.682,-47.852,-61.523,-34.180,-68.359,0.000
1709720486.686,-75.684,-66.895,-40.039,-84.961,0.000
1709720486.690,-96.680,-66.895,-50.781,-110.840,0.000
1709720486.694,-83.008,-60.059,-44.434,-108.398,0.000
1709720486.698,-52.246,-54.688,-29.785,-68.848,0.000
1709720486.702,-53.223,-60.059,-42.969,-68.359,0.000
1709720486.706,-67.383,-56.641,-52.734,-86.426,0.000
1709720486.710,-70.801,-51.270,-41.504,-93.750,0.000
1709720486.714,-64.941,-44.922,-26.855,-83.496,0.000
1709720486.717,-68.359,-56.641,-26.367,-75.684,0.000
1709720486.721,-58.105,-60.547,-30.273,-62.500,0.000
1709720486.725,-49.316,-50.781,-31.250,-50.293,0.000
1709720486.729,-86.914,-66.895,-42.969,-84.961,0.000
1709720486.733,-98.145,-72.266,-46.387,-107.910,0.000
1709720486.737,-76.660,-63.965,-43.945,-90.820,0.000
1709720486.741,-47.363,-55.664,-35.645,-55.664,0.000
1709720486.745,-50.293,-56.641,-33.691,-55.176,0.000
1709720486.749,-84.961,-56.152,-41.992,-87.891,0.000
1709720486.753,-83.008,-55.664,-33.203,-96.680,0.000
1709720486.757,-44.922,-51.270,-20.508,-62.988,0.000
1709720486.760,-30.273,-50.781,-27.344,-41.504,0.000
1709720486.764,-60.059,-62.500,-40.039,-67.871,0.000
1709720486.768,-81.543,-61.035,-49.805,-96.191,0.000
1709720486.772,-64.453,-52.734,-34.668,-77.148,0.000
1709720486.776,-45.898,-47.363,-24.902,-59.570,0.000
1709720486.780,-61.035,-54.199,-40.527,-77.637,0.000
1709720486.784,-63.477,-55.176,-34.180,-75.684,0.000
1709720486.788,-76.660,-55.664,-30.273,-79.590,0.000
1709720486.792,-93.262,-59.082,-40.039,-93.750,0.000
1709720486.796,-83.984,-60.059,-40.527,-88.379,0.000
1709720486.800,-49.316,-57.617,-32.227,-61.035,0.000
1709720486.803,-25.879,-47.852,-28.809,-44.922,0.000
1709720486.807,-58.594,-54.688,-33.203,-73.242,0.000
1709720486.811,-87.402,-64.453,-37.598,-111.328,0.000
1709720486.815,-70.312,-57.129,-36.621,-95.703,0.000
1709720486.819,-37.109,-45.410,-26.367,-54.688,0.000
1709720486.823,-50.781,-56.152,-35.156,-72.266,0.000
1709720486.827,-78.613,-71.289,-41.992,-99.121,0.000
1709720486.831,-76.172,-66.406,-39.062,-94.727,0.000
1709720486.835,-59.570,-63.965,-34.668,-86.914,0.000
1709720486.839,-54.688,-62.012,-37.598,-79.102,0.000
1709720486.843,-57.617,-55.176,-41.504,-72.754,0.000
1709720486.846,-55.176,-65.430,-31.250,-62.988,0.000
1709720486.850,-56.152,-66.406,-29.297,-77.148,0.000
1709720486.854,-60.547,-53.711,-31.738,-86.914,0.000
1709720486.858,-53.711,-56.152,-36.133,-72.266,0.000
1709720486.862,-27.832,-47.363,-34.180,-39.551,0.000
1709720486.866,-20.996,-41.016,-21.484,-27.344,0.000
1709720486.870,-85.938,-63.965,-34.668,-97.656,0.000
1709720486.874,-104.004,-68.848,-37.109,-116.211,0.000
1709720486.878,-56.152,-57.129,-26.367,-68.848,0.000
1709720486.882,-45.410,-55.176,-29.785,-56.641,0.000
1709720486.886,-64.453,-62.500,-34.668,-74.707,0.000
1709720486.889,-76.172,-70.801,-38.574,-98.145,0.000
1709720486.893,-76.172,-68.848,-40.039,-104.492,0.000
1709720486.897,-44.922,-65.430,-34.180,-78.613,0.000
1709720486.901,-36.621,-64.453,-29.297,-63.477,0.000
1709720486.905,-58.105,-64.941,-31.250,-71.777,0.000
1709720486.909,-49.805,-53.223,-22.949,-70.312,0.000
1709720486.913,-78.613,-58.594,-29.785,-101.074,0.000
1709720486.917,-90.820,-69.336,-37.109,-103.516,0.000
1709720486.921,-47.363,-63.477,-29.297,-54.199,0.000
1709720486.925,-44.922,-62.988,-29.297,-58.594,0.000
1709720486.928,-75.684,-72.266,-44.434,-100.098,0.000
1709720486.932,-80.566,-68.359,-44.922,-108.887,0.000
1709720486.936,-67.871,-56.152,-26.855,-82.031,0.000
1709720486.940,-40.527,-48.340,-26.367,-54.199,0.000
1709720486.944,-35.156,-50.293,-34.668,-62.012,0.000
1709720486.948,-61.523,-56.152,-33.691,-86.914,0.000
1709720486.952,-52.734,-54.199,-22.461,-78.613,0.000
1709720486.956,-31.738,-57.129,-8.789,-50.293,0.000
1709720486.960,-68.359,-77.637,-27.344,-73.730,0.000
1709720486.964,-75.684,-83.008,-37.598,-84.473,0.000
1709720486.967,-68.359,-70.312,-30.273,-80.566,0.000
1709720486.971,-82.520,-64.941,-28.809,-93.750,0.000
1709720486.975,-77.148,-61.035,-31.738,-88.867,0.000
1709720486.979,-51.758,-51.758,-30.762,-57.617,0.000
1709720486.983,-40.527,-51.270,-28.809,-41.992,0.000
1709720486.987,-62.500,-64.453,-36.621,-64.941,0.000
1709720486.991,-72.266,-61.035,-39.062,-81.055,0.000
1709720486.995,-59.082,-51.758,-31.738,-83.496,0.000
1709720486.999,-25.391,-53.711,-17.090,-51.758,0.000
1709720487.003,-44.434,-63.965,-20.020,-49.316,0.000
1709720487.007,-77.637,-68.359,-26.367,-83.008,0.000
1709720487.010,-78.125,-68.848,-28.809,-94.238,0.000
1709720487.014,-77.148,-68.848,-30.762,-88.379,0.000
1709720487.018,-69.824,-73.242,-36.133,-74.219,0.000
1709720487.022,-45.898,-62.500,-37.109,-51.270,0.000
1709720487.026,-41.504,-44.434,-32.715,-39.062,0.000
1709720487.030,-72.754,-52.734,-39.062,-72.754,0.000
1709720487.034,-78.125,-58.594,-45.898,-90.332,0.000
1709720487.038,-45.898,-54.688,-38.574,-58.105,0.000
1709720487.042,-19.531,-50.293,-23.926,-28.320,0.000
1709720487.046,-14.648,-42.480,-17.090,-16.602,0.000
1709720487.049,-76.660,-64.941,-49.316,-85.449,0.000
1709720487.053,-95.703,-73.730,-65.430,-117.676,0.000
1709720487.057,-56.152,-59.082,-40.527,-77.148,0.000
1709720487.061,-39.551,-49.316,-23.438,-48.340,0.000
1709720487.065,-52.734,-59.082,-30.273,-65.430,0.000
1709720487.069,-79.590,-73.242,-39.551,-96.191,0.000
1709720487.073,-83.496,-64.453,-40.039,-87.402,0.000
1709720487.077,-68.359,-58.105,-44.434,-80.566,0.000
1709720487.081,-50.293,-59.082,-37.109,-67.383,0.000
1709720487.085,-44.922,-54.688,-31.250,-56.641,0.000
1709720487.089,-41.016,-43.945,-29.785,-52.734,0.000
1709720487.092,-79.102,-55.664,-45.410,-87.891,0.000
1709720487.096,-95.703,-68.848,-59.570,-100.098,0.000
1709720487.100,-48.828,-60.059,-48.828,-52.246,0.000
1709720487.104,-35.156,-58.594,-47.852,-51.270,0.000
1709720487.108,-65.430,-62.012,-57.129,-83.496,0.000
1709720487.112,-76.172,-60.547,-56.152,-96.191,0.000
1709720487.116,-57.617,-56.641,-42.480,-74.707,0.000
1709720487.120,-38.574,-54.688,-37.109,-42.480,0.000
1709720487.124,-52.734,-57.129,-45.410,-58.105,0.000
1709720487.128,-79.102,-62.988,-52.734,-95.703,0.000
1709720487.131,-68.848,-53.711,-40.527,-84.473,0.000
1709720487.135,-41.992,-45.898,-30.762,-59.570,0.000
1709720487.139,-42.480,-47.852,-40.527,-69.824,0.000
1709720487.143,-55.176,-48.340,-45.898,-80.566,0.000
1709720487.147,-36.133,-40.527,-23.926,-54.688,0.000
1709720487.151,-41.016,-41.504,-18.066,-57.129,0.000
1709720487.155,-82.520,-71.289,-40.527,-98.145,0.000
1709720487.159,-60.547,-63.965,-38.086,-72.266,0.000
1709720487.163,-40.039,-53.223,-36.621,-54.688,0.000
1709720487.167,-62.988,-72.754,-47.363,-86.426,0.000
1709720487.171,-81.543,-70.312,-44.922,-105.957,0.000
1709720487.174,-67.871,-61.523,-43.945,-91.797,0.000
1709720487.178,-41.992,-55.664,-41.016,-63.477,0.000
1709720487.182,-42.480,-51.270,-40.039,-55.664,0.000
1709720487.186,-67.871,-53.223,-48.828,-78.125,0.000
1709720487.190,-74.707,-53.711,-47.363,-96.680,0.000
1709720487.194,-69.336,-57.617,-44.434,-75.195,0.000
1709720487.198,-68.359,-55.664,-52.246,-68.848,0.000
1709720487.202,-57.617,-56.641,-50.781,-67.871,0.000
1709720487.206,-62.012,-58.594,-44.434,-60.547,0.000
1709720487.210,-76.660,-58.105,-43.457,-79.590,0.000
1709720487.214,-89.844,-57.617,-43.457,-105.957,0.000
1709720487.217,-70.801,-52.246,-46.387,-92.773,0.000
1709720487.221,-40.039,-46.875,-49.805,-60.547,0.000
1709720487.225,-39.062,-45.410,-40.527,-62.500,0.000
1709720487.229,-66.895,-51.270,-38.086,-94.238,0.000
1709720487.233,-83.984,-59.082,-45.898,-103.516,0.000
1709720487.237,-45.410,-47.852,-34.668,-62.012,0.000
1709720487.241,-18.066,-41.016,-28.320,-33.203,0.000
1709720487.245,-70.312,-65.918,-51.758,-88.379,0.000
1709720487.249,-101.562,-68.359,-53.711,-118.164,0.000
1709720487.253,-97.656,-57.129,-45.898,-103.027,0.000
1709720487.257,-81.055,-59.570,-46.875,-86.914,0.000
1709720487.260,-64.941,-59.570,-49.805,-70.801,0.000
1709720487.264,-71.289,-53.711,-49.316,-67.871,0.000
1709720487.268,-81.543,-54.199,-41.016,-82.031,0.000
1709720487.272,-84.473,-60.059,-43.945,-99.121,0.000
1709720487.276,-72.754,-63.477,-51.270,-88.379,0.000
1709720487.280,-43.457,-66.406,-38.574,-59.570,0.000
1709720487.284,-20.996,-62.988,-22.949,-33.691,0.000
1709720487.288,-65.918,-63.965,-36.133,-76.660,0.000
1709720487.292,-89.844,-56.641,-39.062,-107.910,0.000
1709720487.296,-51.270,-47.363,-29.785,-70.801,0.000
1709720487.300,-35.156,-53.223,-29.785,-53.711,0.000
1709720487.303,-41.016,-47.363,-30.762,-61.035,0.000
1709720487.307,-58.105,-39.551,-38.086,-76.660,0.000
1709720487.311,-74.219,-45.898,-33.691,-91.797,0.000
1709720487.315,-69.824,-50.781,-31.250,-86.426,0.000
1709720487.319,-44.922,-50.781,-36.621,-61.523,0.000
1709720487.323,-38.574,-47.363,-30.762,-47.363,0.000
1709720487.327,-40.039,-35.645,-20.508,-43.457,0.000
1709720487.331,-38.086,-30.273,-14.648,-44.434,0.000
1709720487.335,-80.566,-54.199,-32.715,-94.238,0.000
1709720487.339,-69.336,-60.547,-40.527,-89.355,0.000
1709720487.342,-36.133,-47.363,-32.715,-55.664,0.000
1709720487.346,-57.617,-52.246,-36.133,-69.336,0.000
1709720487.350,-74.707,-63.477,-40.039,-96.680,0.000
1709720487.354,-67.383,-58.594,-41.504,-105.469,0.000
1709720487.358,-47.852,-49.805,-34.180,-73.242,0.000
1709720487.362,-51.270,-52.734,-32.715,-61.523,0.000
1709720487.366,-55.176,-47.852,-35.156,-64.941,0.000
1709720487.370,-69.824,-49.316,-38.574,-83.008,0.000
1709720487.374,-63.477,-42.969,-32.227,-80.078,0.000
1709720487.378,-67.383,-41.504,-40.039,-78.125,0.000
1709720487.381,-75.195,-42.969,-44.922,-69.824,0.000
1709720487.385,-58.594,-39.062,-30.762,-51.270,0.000
1709720487.389,-74.219,-38.086,-33.203,-82.031,0.000
1709720487.393,-88.379,-47.363,-40.039,-111.328,0.000
1709720487.397,-65.918,-51.270,-43.457,-95.215,0.000
1709720487.401,-30.762,-36.621,-31.738,-52.734,0.000
1709720487.405,-36.621,-34.180,-26.367,-52.734,0.000
1709720487.409,-69.336,-43.457,-35.645,-92.285,0.000
1709720487.413,-75.195,-43.945,-40.527,-102.051,0.000
1709720487.417,-43.457,-44.434,-34.180,-63.965,0.000
1709720487.421,-9.277,-39.062,-20.996,-21.973,0.000
1709720487.424,-57.129,-55.664,-41.992,-75.195,0.000
1709720487.428,-99.609,-65.430,-57.617,-118.164,0.000
1709720487.432,-81.055,-57.129,-50.293,-98.145,0.000
1709720487.436,-69.824,-54.199,-50.293,-84.961,0.000
1709720487.440,-67.383,-65.430,-51.758,-70.312,0.000
1709720487.444,-57.617,-62.988,-45.898,-63.965,0.000
1709720487.448,-69.336,-55.664,-36.133,-81.543,0.000
1709720487.452,-85.938,-61.035,-32.227,-101.074,0.000
1709720487.456,-73.730,-56.641,-37.109,-87.402,0.000
1709720487.460,-53.711,-49.316,-38.574,-56.152,0.000
1709720487.464,-36.133,-42.969,-30.273,-30.762,0.000
1709720487.467,-66.895,-56.152,-38.086,-73.730,0.000
1709720487.471,-104.004,-71.289,-52.246,-125.000,0.000
1709720487.475,-72.266,-63.965,-40.039,-95.215,0.000
1709720487.479,-49.805,-62.988,-36.621,-64.941,0.000
1709720487.483,-60.059,-65.918,-38.574,-69.824,0.000
1709720487.487,-73.730,-65.918,-44.434,-84.961,0.000
1709720487.491,-77.637,-58.594,-41.992,-86.914,0.000
1709720487.495,-70.312,-54.688,-29.785,-81.055,0.000
1709720487.499,-67.871,-54.688,-33.691,-74.707,0.000
1709720487.503,-61.523,-49.316,-37.598,-66.406,0.000
1709720487.506,-41.016,-43.945,-22.461,-50.781,0.000
1709720487.510,-51.270,-52.246,-17.578,-62.500,0.000
1709720487.514,-75.195,-60.059,-32.227,-96.191,0.000
1709720487.518,-58.105,-57.617,-31.738,-79.102,0.000
1709720487.522,-33.691,-56.152,-24.902,-26.855,0.000
1709720487.526,-45.898,-55.176,-27.344,-43.945,0.000
1709720487.530,-90.820,-57.129,-38.574,-112.793,0.000
1709720487.534,-92.773,-56.152,-37.598,-111.816,0.000
1709720487.538,-67.871,-58.594,-29.785,-74.707,0.000
1709720487.542,-55.664,-62.988,-35.156,-56.152,0.000
1709720487.546,-62.988,-52.734,-50.293,-73.730,0.000
1709720487.549,-74.707,-38.086,-34.180,-81.055,0.000
1709720487.553,-75.195,-43.457,-22.461,-74.219,0.000
1709720487.557,-75.684,-50.293,-34.180,-80.566,0.000
1709720487.561,-62.988,-52.246,-39.551,-74.707,0.000
1709720487.565,-54.199,-56.152,-37.598,-65.918,0.000
1709720487.569,-62.500,-56.641,-37.109,-76.172,0.000
1709720487.573,-94.238,-60.059,-45.410,-107.422,0.000
1709720487.577,-76.660,-51.270,-37.598,-85.938,0.000
1709720487.581,-46.875,-48.828,-30.273,-49.316,0.000
1709720487.585,-62.500,-56.152,-41.992,-60.059,0.000
1709720487.589,-79.590,-60.547,-48.340,-87.402,0.000
1709720487.592,-85.938,-60.547,-43.945,-101.074,0.000
1709720487.596,-63.965,-48.340,-31.250,-68.848,0.000
1709720487.600,-41.992,-46.387,-28.320,-42.480,0.000
1709720487.604,-53.711,-61.035,-41.992,-52.734,0.000
1709720487.608,-74.219,-67.871,-51.758,-81.055,0.000
1709720487.612,-61.523,-49.316,-37.598,-85.938,0.000
1709720487.616,-35.156,-42.480,-26.367,-59.570,0.000
1709720487.620,-64.941,-65.918,-52.734,-88.867,0.000
1709720487.624,-62.988,-61.035,-55.176,-96.680,0.000
1709720487.628,-65.918,-65.430,-41.992,-92.773,0.000
1709720487.632,-90.820,-72.266,-41.016,-106.934,0.000
1709720487.635,-72.754,-55.664,-37.109,-84.961,0.000
1709720487.639,-58.105,-54.199,-31.738,-66.406,0.000
1709720487.643,-53.711,-56.641,-27.832,-60.547,0.000
1709720487.647,-64.453,-56.152,-39.062,-76.660,0.000
1709720487.651,-84.473,-57.129,-43.945,-95.215,0.000
1709720487.655,-82.520,-48.340,-42.480,-94.238,0.000
1709720487.659,-39.062,-39.062,-33.203,-51.270,0.000
1709720487.663,-47.363,-55.664,-32.715,-52.734,0.000
1709720487.667,-85.938,-66.406,-39.551,-95.215,0.000
1709720487.671,-83.008,-62.012,-41.016,-103.516,0.000
1709720487.675,-74.219,-58.594,-41.504,-97.656,0.000
1709720487.678,-58.105,-51.270,-42.969,-73.730,0.000
1709720487.682,-47.363,-50.781,-41.992,-63.477,0.000
1709720487.686,-50.293,-48.340,-37.109,-67.383,0.000
1709720487.690,-59.082,-51.758,-30.273,-76.172,0.000
1709720487.694,-62.500,-51.270,-27.832,-84.473,0.000
1709720487.698,-60.059,-44.922,-31.250,-72.266,0.000
1709720487.702,-26.855,-37.109,-20.508,-36.133,0.000
1709720487.706,-17.090,-29.297,-13.184,-19.531,0.000
1709720487.710,-91.797,-55.664,-41.016,-94.238,0.000
1709720487.714,-99.609,-68.848,-48.828,-120.605,0.000
1709720487.717,-55.176,-58.105,-31.738,-79.590,0.000
1709720487.721,-40.039,-52.734,-36.621,-60.059,0.000
1709720487.725,-46.387,-50.781,-43.457,-72.754,0.000
1709720487.729,-60.547,-56.152,-39.551,-90.820,0.000
1709720487.733,-66.895,-59.570,-29.785,-92.773,0.000
1709720487.737,-60.059,-53.223,-26.855,-78.613,0.000
1709720487.741,-42.969,-46.387,-28.809,-49.805,0.000
1709720487.745,-53.223,-54.688,-29.785,-62.012,0.000
1709720487.749,-62.500,-49.316,-28.809,-77.148,0.000
1709720487.753,-82.031,-48.828,-42.969,-100.098,0.000
1709720487.756,-90.332,-56.641,-46.387,-106.934,0.000
1709720487.760,-61.035,-47.852,-32.715,-65.918,0.000
1709720487.764,-59.570,-48.340,-35.156,-62.012,0.000
1709720487.768,-87.402,-70.801,-42.969,-105.957,0.000
1709720487.772,-91.797,-76.660,-34.668,-111.816,0.000
1709720487.776,-70.312,-55.176,-25.879,-81.543,0.000
1709720487.780,-50.781,-48.340,-30.273,-60.059,0.000
1709720487.784,-48.340,-49.805,-31.738,-62.012,0.000
1709720487.788,-63.477,-52.734,-35.156,-87.402,0.000
1709720487.792,-62.012,-51.758,-33.203,-89.355,0.000
1709720487.796,-37.109,-39.551,-20.508,-56.641,0.000
1709720487.799,-61.035,-53.223,-40.039,-84.473,0.000
1709720487.803,-63.965,-59.570,-45.898,-96.680,0.000
1709720487.807,-59.082,-54.199,-33.691,-80.566,0.000
1709720487.811,-89.844,-62.012,-42.480,-105.957,0.000
1709720487.815,-89.355,-59.570,-49.316,-103.516,0.000
1709720487.819,-49.316,-44.434,-34.180,-68.848,0.000
1709720487.823,-37.109,-43.457,-22.949,-52.734,0.000
1709720487.827,-67.383,-58.105,-34.668,-79.102,0.000
1709720487.831,-77.148,-56.152,-34.668,-102.539,0.000
1709720487.835,-59.082,-46.875,-25.391,-92.773,0.000
1709720487.838,-29.785,-43.945,-25.879,-54.688,0.000
1709720487.842,-41.016,-53.223,-38.574,-56.152,0.000
1709720487.846,-79.590,-64.453,-48.340,-93.262,0.000
1709720487.850,-78.613,-55.176,-41.992,-97.168,0.000
1709720487.854,-72.754,-53.223,-31.738,-87.891,0.000
1709720487.858,-68.359,-61.035,-31.738,-76.172,0.000
1709720487.862,-61.035,-57.129,-32.715,-60.547,0.000
1709720487.866,-53.711,-49.805,-29.785,-62.988,0.000
1709720487.870,-66.406,-52.246,-34.668,-85.449,0.000
1709720487.874,-85.938,-62.500,-41.016,-103.516,0.000
1709720487.878,-66.895,-64.453,-37.598,-83.984,0.000
1709720487.881,-23.438,-45.410,-21.484,-38.574,0.000
1709720487.885,-31.250,-44.922,-21.484,-42.969,0.000
1709720487.889,-76.172,-66.895,-41.016,-94.727,0.000
1709720487.893,-92.285,-69.824,-47.852,-122.559,0.000
1709720487.897,-50.781,-50.781,-22.461,-62.500,0.000
1709720487.901,-20.996,-45.410,-21.484,-21.484,0.000
1709720487.905,-73.242,-69.336,-50.781,-77.637,0.000
1709720487.909,-81.543,-69.824,-42.480,-90.332,0.000
1709720487.913,-75.684,-65.430,-41.016,-89.844,0.000
1709720487.917,-63.477,-69.336,-41.016,-68.359,0.000
1709720487.921,-51.270,-55.664,-36.133,-53.223,0.000
1709720487.924,-59.082,-44.434,-36.133,-71.289,0.000
1709720487.928,-57.129,-51.758,-29.785,-78.125,0.000
1709720487.932,-72.754,-48.828,-33.203,-99.609,0.000
1709720487.936,-78.125,-55.664,-42.480,-106.445,0.000
1709720487.940,-50.781,-58.105,-45.898,-68.848,0.000
1709720487.944,-42.480,-46.875,-35.645,-44.922,0.000
1709720487.948,-87.891,-60.547,-35.156,-83.984,0.000
1709720487.952,-103.516,-65.430,-40.527,-107.422,0.000
1709720487.956,-70.801,-53.223,-29.785,-77.148,0.000
1709720487.960,-49.316,-48.340,-24.414,-50.293,0.000
1709720487.964,-61.035,-52.734,-38.574,-58.105,0.000
1709720487.967,-76.172,-54.688,-45.898,-83.496,0.000
1709720487.971,-75.684,-50.781,-35.645,-94.727,0.000
1709720487.975,-64.941,-50.781,-31.738,-79.102,0.000
1709720487.979,-51.270,-55.664,-35.645,-65.430,0.000
1709720487.983,-44.434,-51.758,-29.785,-53.223,0.000
1709720487.987,-39.062,-39.551,-17.090,-41.016,0.000
1709720487.991,-40.039,-35.645,-19.531,-46.875,0.000
1709720487.995,-88.379,-64.941,-41.504,-91.309,0.000
1709720487.999,-76.172,-74.219,-38.574,-75.195,0.000
1709720488.003,-46.387,-59.082,-40.527,-59.082,0.000
1709720488.007,-72.754,-61.035,-46.875,-90.332,0.000
1709720488.010,-86.914,-62.988,-38.574,-108.398,0.000
1709720488.014,-73.242,-60.547,-31.250,-109.863,0.000
1709720488.018,-45.410,-51.270,-26.367,-83.496,0.000
1709720488.022,-35.645,-52.246,-25.391,-55.176,0.000
1709720488.026,-63.965,-69.824,-36.133,-80.078,0.000
1709720488.030,-86.914,-71.289,-42.969,-104.004,0.000
1709720488.034,-66.895,-53.711,-25.391,-66.895,0.000
1709720488.038,-72.754,-59.570,-31.250,-64.453,0.000
1709720488.042,-78.125,-65.918,-42.969,-77.148,0.000
1709720488.046,-42.969,-43.457,-27.832,-53.711,0.000
1709720488.050,-46.875,-43.945,-19.043,-61.523,0.000
1709720488.053,-94.238,-67.871,-21.973,-100.586,0.000
1709720488.057,-87.402,-62.500,-22.461,-94.727,0.000
1709720488.061,-47.852,-45.898,-16.602,-51.270,0.000
1709720488.065,-70.801,-57.617,-18.555,-66.406,0.000
1709720488.069,-106.445,-72.754,-25.391,-111.328,0.000
1709720488.073,-111.816,-67.871,-32.227,-128.418,0.000
1709720488.077,-81.055,-60.059,-26.855,-98.145,0.000
1709720488.081,-43.457,-48.828,-6.348,-48.828,0.000
1709720488.085,-96.680,-63.477,-23.438,-92.773,0.000
1709720488.088,-120.117,-64.941,-29.785,-120.117,0.000
1709720488.092,-101.074,-57.617,-20.020,-103.516,0.000
1709720488.096,-95.215,-61.523,-23.926,-99.609,0.000
1709720488.100,-74.219,-58.105,-28.320,-76.660,0.000
1709720488.104,-65.430,-59.082,-32.227,-63.965,0.000
1709720488.108,-84.961,-68.359,-36.133,-91.309,0.000
1709720488.112,-90.820,-74.707,-41.992,-104.980,0.000
1709720488.116,-66.406,-68.848,-32.715,-83.496,0.000
1709720488.120,-50.293,-62.500,-28.809,-62.988,0.000
1709720488.124,-33.203,-48.828,-22.461,-43.457,0.000
1709720488.128,-65.430,-52.246,-23.438,-76.660,0.000
1709720488.131,-105.469,-70.312,-41.504,-122.070,0.000
1709720488.135,-82.520,-57.617,-45.898,-105.957,0.000
1709720488.139,-59.082,-48.340,-45.410,-72.266,0.000
1709720488.143,-64.453,-60.547,-42.480,-71.289,0.000
1709720488.147,-70.312,-61.035,-31.738,-78.613,0.000
1709720488.151,-81.055,-59.570,-25.879,-83.984,0.000
1709720488.155,-83.984,-66.406,-29.297,-87.891,0.000
1709720488.159,-64.941,-67.383,-31.738,-72.266,0.000
1709720488.163,-48.828,-65.430,-37.598,-45.410,0.000
1709720488.167,-49.316,-62.012,-34.180,-49.316,0.000
1709720488.171,-47.852,-49.316,-19.043,-57.129,0.000
1709720488.174,-85.449,-64.941,-45.410,-100.098,0.000
1709720488.178,-90.820,-75.195,-57.129,-99.121,0.000
1709720488.182,-59.570,-67.871,-39.062,-56.152,0.000
1709720488.186,-69.824,-71.289,-39.551,-76.660,0.000
1709720488.190,-91.309,-69.824,-41.992,-106.934,0.000
1709720488.194,-77.148,-55.176,-33.691,-85.938,0.000
1709720488.198,-49.805,-47.852,-25.391,-55.176,0.000
1709720488.202,-40.527,-45.898,-33.203,-58.105,0.000
1709720488.206,-52.246,-48.340,-44.434,-71.289,0.000
1709720488.210,-65.430,-56.152,-43.457,-95.215,0.000
1709720488.213,-41.504,-48.828,-18.555,-73.242,0.000
1709720488.217,-51.270,-51.270,-27.832,-67.383,0.000
1709720488.221,-59.082,-51.270,-45.410,-75.684,0.000
1709720488.225,-43.457,-45.410,-28.320,-65.430,0.000
1709720488.229,-61.035,-49.316,-22.949,-87.402,0.000
1709720488.233,-76.660,-53.711,-25.391,-106.445,0.000
1709720488.237,-67.871,-55.664,-33.691,-94.238,0.000
1709720488.241,-46.875,-49.805,-37.598,-60.059,0.000
1709720488.245,-50.293,-49.805,-34.180,-50.781,0.000
1709720488.249,-72.754,-54.688,-30.762,-83.984,0.000
1709720488.253,-68.359,-51.758,-30.273,-98.145,0.000
1709720488.256,-38.086,-40.039,-23.438,-64.941,0.000
1709720488.260,-22.949,-42.969,-20.996,-42.969,0.000
1709720488.264,-45.898,-59.082,-29.297,-63.965,0.000
1709720488.268,-69.336,-65.430,-28.809,-90.332,0.000
1709720488.272,-60.547,-60.547,-19.043,-80.078,0.000
1709720488.276,-42.480,-54.688,-21.484,-59.570,0.000
1709720488.280,-53.711,-66.895,-46.875,-66.895,0.000
1709720488.284,-49.316,-49.316,-48.340,-50.293,0.000
1709720488.288,-75.195,-43.457,-41.504,-77.637,0.000
1709720488.292,-93.750,-56.152,-43.945,-107.910,0.000
1709720488.296,-79.102,-55.176,-38.574,-92.773,0.000
1709720488.299,-54.688,-52.246,-32.227,-66.406,0.000
1709720488.303,-38.086,-50.293,-31.250,-41.016,0.000
1709720488.307,-58.594,-53.223,-37.109,-66.406,0.000
1709720488.311,-82.031,-56.152,-38.574,-103.027,0.000
1709720488.315,-60.059,-49.316,-26.367,-82.031,0.000
1709720488.319,-25.391,-48.828,-19.043,-40.039,0.000
1709720488.323,-41.504,-58.105,-31.738,-53.223,0.000
1709720488.327,-60.547,-58.105,-41.992,-83.008,0.000
1709720488.331,-59.570,-56.641,-37.598,-89.844,0.000
1709720488.335,-64.941,-62.012,-36.621,-85.449,0.000
1709720488.339,-64.941,-62.012,-36.621,-76.172,0.000
1709720488.342,-57.617,-59.082,-36.133,-58.594,0.000
1709720488.346,-53.223,-54.199,-34.180,-56.152,0.000
1709720488.350,-55.176,-46.875,-30.273,-76.172,0.000
1709720488.354,-61.523,-53.711,-29.785,-84.961,0.000
1709720488.358,-54.199,-55.664,-33.691,-65.918,0.000
1709720488.362,-26.367,-42.969,-30.762,-31.738,0.000
1709720488.366,-18.066,-41.992,-23.926,-28.809,0.000
1709720488.370,-88.379,-67.383,-51.758,-98.633,0.000
